Photodiode Viewing Angle (Degrees) - Plot 0	Lock-in Signal Amplitude (V) - Plot 0
-50.4989	0.000185729
-49.9989	0.000186504
-49.4989	0.000188948
-48.999	0.000184477
-48.499	0.000174821
-47.999	0.000173331
-47.499	0.000171364
-46.999	0.000169159
-46.499	0.000166417
-45.999	0.00016296
-45.499	0.000160576
-44.999	0.000156642
-44.499	0.000160755
-43.9996	0.000161947
-43.499	0.000164569
-43.0004	0.000164271
-42.499	0.000164867
-41.999	0.000162841
-41.499	0.000162364
-40.999	0.000165046
-40.499	0.000167132
-39.999	0.000171722
-39.499	0.000178755
-38.999	0.000180186
-38.499	0.000182212
-37.9991	0.000177146
-37.4991	0.000169457
-36.9991	0.000168503
-36.4991	0.000172199
-35.9991	0.000176908
-35.4991	0.000185789
-34.9991	0.000182391
-34.4991	0.000193478
-33.9991	0.000228644
-33.4991	0.000273647
-32.9991	0.000314536
-32.4991	0.000338675
-31.9991	0.00031841
-31.4991	0.00026268
-30.9991	0.000213982
-30.4991	0.000191332
-29.9991	0.000190199
-29.4991	0.000190378
-28.9991	0.000189484
-28.4991	0.000187934
-27.9991	0.000190617
-27.4991	0.00019008
-26.9991	0.000191213
-26.4991	0.000186504
-25.9991	0.000186087
-25.4991	0.000189663
-24.9991	0.000191809
-24.4991	0.000193001
-23.9991	0.000191809
-23.4992	0.00018704
-22.9992	0.000180007
-22.4992	0.000180186
-21.9992	0.000179888
-21.4992	0.000186265
-20.9992	0.000186623
-20.4992	0.000191153
-19.9992	0.000185967
-19.4992	0.000183285
-18.9992	0.000182749
-18.4992	0.000186444
-17.9992	0.000183285
-17.4992	0.000187994
-16.9992	0.000185908
-16.4992	0.000185371
-15.9992	0.000183822
-15.4992	0.000181974
-14.9992	0.000180067
-14.4992	0.000180424
-14	0.000183345
-13.5001	0.000186385
-12.9992	0.000184418
-12.5004	0.000193776
-12.0009	0.000190855
-11.4993	0.000193835
-10.9993	0.000191034
-10.4993	0.000189246
-10.0005	0.000190617
-9.49927	0.000193478
-8.99928	0.000192941
-8.49928	0.000192345
-7.99928	0.000191272
-7.49928	0.000189603
-6.99928	0.000195683
-6.4993	0.0001992
-5.9993	0.000202836
-5.4993	0.000206948
-4.99931	0.000211419
-4.49931	0.000213862
-3.99931	0.000211299
-3.49931	0.000215174
-2.99931	0.000219227
-2.49933	0.000226677
-1.99933	0.0002293
-1.49934	0.000230611
-0.999336	0.000234307
-0.499336	0.000234724
0.000656128	0.000234128
0.500656	0.000236333
1.00066	0.000237585
1.50064	0.000241877
2.00064	0.000246944
2.50063	0.000246825
3.00063	0.000248017
3.50063	0.000250997
4.00063	0.000252547
4.50063	0.000252368
5.00063	0.000254096
5.50062	0.000260355
6.0006	0.000262739
6.5006	0.000267806
7.0006	0.00027168
7.5006	0.000271024
8.0006	0.000276269
8.5006	0.000280382
9.00059	0.000284197
9.50059	0.000286581
10.0006	0.000291111
10.5006	0.000294449
11.0006	0.000296833
11.5006	0.000305356
12.0006	0.000308098
12.5006	0.000303866
13.0006	0.00031078
13.5006	0.000313642
14.0005	0.000322403
14.5005	0.000329198
15.0005	0.000336589
15.5005	0.000346364
16.0005	0.000349345
16.5005	0.000352861
17.0005	0.000354053
17.5005	0.000359537
18.0005	0.00036657
18.5005	0.000370504
19.0005	0.000377776
19.5005	0.000389041
20.0005	0.000393512
20.5005	0.000405433
21.0005	0.000414195
21.5005	0.000417592
22.0005	0.000426592
22.5005	0.000432612
23.0005	0.00043595
23.5005	0.000446739
24.0005	0.000458064
24.5005	0.000474991
25.0005	0.000482859
25.5005	0.000489656
26.0005	0.000504736
26.5005	0.000515882
27.0005	0.000520412
27.5004	0.000531916
28.0004	0.000542585
28.5004	0.000548247
29.0004	0.000559811
29.5004	0.000575069
30.0004	0.000586752
30.5004	0.00059915
31.0004	0.000621323
31.5004	0.000635628
32.0004	0.00065494
32.5004	0.000667576
33.0004	0.000681642
33.5004	0.00068951
34.0004	0.0007031
34.5004	0.000723127
35.0004	0.000739578
35.5004	0.00075746
36.0004	0.00077844
36.5004	0.000792984
37.0003	0.000813726
37.5003	0.000838999
38.0004	0.000857595
38.5004	0.000874761
39.0004	0.000904564
39.5004	0.000925545
40.0003	0.000942949
40.5003	0.000972752
41.0003	0.000998981
41.5003	0.00101543
42.0003	0.00103546
42.5003	0.0010562
43.0003	0.00108457
43.5003	0.00111652
44.0003	0.00115062
44.5003	0.0011797
45.0003	0.00122166
45.5003	0.00125242
46.0003	0.00132275
46.5003	0.00137282
47.0003	0.0014062
47.5003	0.00145341
48.0003	0.00148989
48.5003	0.00153709
49.0003	0.0015812
49.5003	0.00161339
50.0003	0.00165177
50.5003	0.00169087
51.0003	0.00173856
51.5003	0.00176764
52.0003	0.00181008
52.5002	0.00183488
53.0002	0.00189448
53.5002	0.00192786
54.0002	0.00192118
54.5002	0.00196077
55.0002	0.00200321
55.5002	0.0020795
56.0002	0.00214435
56.5002	0.00218917
57.0002	0.0022216
57.5002	0.00227453
58.0002	0.00234605
58.5002	0.00239326
59.0001	0.00247242
59.5002	0.00258972
60.0002	0.0026684
60.5002	0.00271751
61.0002	0.00278713
61.5002	0.00287105
62.0002	0.00297548
62.4987	0.00305797
62.9983	0.00315095
63.4984	0.00328304
64.0002	0.00343944
64.5002	0.00352336
65.0002	0.00364877
65.5001	0.00378467
66.0001	0.00388385
66.5001	0.00387336
67.0001	0.00390197
67.5001	0.00402406
68.0001	0.00407842
68.5001	0.00411943
69.0001	0.00407794
69.5001	0.00404695
70.0001	0.00408843
70.5001	0.00411323
71.0001	0.00401261
71.5001	0.0038643
72.0001	0.00380851
72.5001	0.0037985
73.0001	0.00384809
73.5001	0.00390771
74.0001	0.00391153
74.5001	0.00386764
75.0001	0.00374986
75.5001	0.0036936
76.0001	0.00367786
76.5001	0.00371505
77.0001	0.00372173
77.5001	0.00370409
78	0.00371219
78.5	0.00368406
79	0.00367166
79.5	0.00360729
80	0.00360872
80.5	0.00353386
81	0.00347044
81.5	0.00342084
82	0.00331809
82.5	0.00320508
83	0.00310208
83.5	0.00297524
84	0.00288798
84.5	0.00279428
85	0.00271608
85	0.00267984
-35.4991	0.000302674
-34.9991	0.000297608
-34.4991	0.000288846
-33.9991	0.000284972
-33.4991	0.000287475
-32.9993	0.000288965
-32.4994	0.000292661
-31.9991	0.000290753
-31.4991	0.000293495
-30.9991	0.000296237
-30.4991	0.000300707
-29.9991	0.00030339
-29.4991	0.000302078
-28.9991	0.000303807
-28.4991	0.000306727
-27.9991	0.000308814
-27.4991	0.000307562
-26.9991	0.000310244
-26.4991	0.00031531
-25.9991	0.000313403
-25.4991	0.000310721
-24.9991	0.000308158
-24.4991	0.000314893
-23.9992	0.000320198
-23.4992	0.000322225
-22.9992	0.000330271
-22.4992	0.000338497
-21.9992	0.000338377
-21.4992	0.00034094
-20.9992	0.000341179
-20.4992	0.000335814
-19.9992	0.00033504
-19.4992	0.000337007
-18.9992	0.000340225
-18.4992	0.000341835
-17.9992	0.000349047
-17.4992	0.000355722
-16.9992	0.000364305
-16.4992	0.000365259
-15.9992	0.000368597
-15.4992	0.000372889
-14.9992	0.00037718
-14.4992	0.000372173
-13.9992	0.000379087
-13.4992	0.000381948
-12.9999	0.000381948
-12.5	0.000383617
-12.0001	0.000386002
-11.4993	0.000390055
-11.0006	0.000392916
-10.4993	0.000395777
-9.99927	0.000400068
-9.49927	0.000407698
-8.99928	0.00040889
-8.49928	0.000407698
-7.99928	0.000407698
-7.49928	0.000409367
-6.99929	0.000419857
-6.4993	0.000426771
-5.99931	0.000432732
-5.49931	0.000437977
-4.99931	0.000449182
-4.49931	0.000459196
-3.99931	0.000462295
-3.49931	0.000458958
-2.99932	0.000465633
-2.49932	0.000475885
-1.99934	0.000487806
-1.49934	0.000487568
-0.999336	0.000494961
-0.499344	0.000496391
0.000656128	0.000497583
0.500656	0.000502352
1.00065	0.000509743
1.50065	0.00050712
2.00063	0.00050259
2.50063	0.000505213
3.00063	0.000513796
3.50063	0.000525955
4.00063	0.000543121
4.50062	0.000560287
5.00062	0.000575785
5.50062	0.000576738
6.0006	0.000565294
6.5006	0.000557665
7.0006	0.000561241
7.5006	0.000582699
8.0006	0.000597958
8.50059	0.00060058
9.00059	0.000601772
9.50059	0.000604872
10.0006	0.000612263
10.5006	0.000621561
11.0006	0.000627521
11.5006	0.000631098
12.0006	0.000642542
12.5006	0.00065184
13.0006	0.000663523
13.5005	0.000667576
14.0005	0.000681642
14.5005	0.000691894
15.0005	0.000707392
15.5005	0.000722889
16.0005	0.000732664
16.5005	0.000745777
17.0005	0.00076199
17.5005	0.000774626
18.0005	0.000779394
18.5005	0.000790123
19.0005	0.000794891
19.5005	0.000804428
20.0005	0.000815395
20.5005	0.000832085
21.0005	0.000852112
21.5005	0.000861172
22.0005	0.000872854
22.5005	0.000886444
23.0005	0.000897888
23.5005	0.000898127
24.0005	0.00090361
24.5004	0.000911716
25.0005	0.000918869
25.5005	0.000926975
26.0005	0.000944141
26.5005	0.000963692
27.0004	0.000984199
27.5004	0.000997551
28.0004	0.00101186
28.5004	0.00102616
29.0004	0.00104094
29.5004	0.00106002
30.0004	0.00107051
30.5004	0.00109006
31.0004	0.00109673
31.5004	0.00110818
32.0004	0.00112582
32.5004	0.00114585
33.0004	0.0011778
33.5004	0.00120068
34.0004	0.00123263
34.5004	0.00126458
35.0004	0.0013013
35.5004	0.00131846
36.0004	0.00132895
36.5004	0.00135422
37.0004	0.00135661
37.5004	0.00138045
38.0004	0.00140382
38.5004	0.00142241
39.0004	0.00145484
39.5004	0.00148774
40.0003	0.0015154
40.5003	0.00154401
40.9998	0.00156785
41.4998	0.00161839
41.9999	0.00163985
42.5003	0.00164986
43.0003	0.00165416
43.5003	0.00164796
44.0003	0.00165749
44.5003	0.00166894
45	0.00169946
45.5003	0.00171662
46.0001	0.00176287
46.4996	0.00181247
47.0003	0.00189591
47.5003	0.00197412
48.0003	0.00204279
48.5003	0.00208475
49.0003	0.00212242
49.5003	0.00214817
50.0002	0.00215341
50.5002	0.00217248
51.0003	0.00218393
51.5003	0.00223066
52.0003	0.00228025
52.5002	0.00232412
53.0002	0.00239278
53.5002	0.00247242
54.0002	0.0025468
54.5002	0.00256874
55.0002	0.00256874
55.5002	0.00259353
56.0002	0.00260641
56.5002	0.00259973
57.0002	0.00261308
57.5002	0.00266744
58.0002	0.0027733
58.5002	0.00286676
59.0002	0.00284864
59.5002	0.00279476
60.0002	0.0027938
60.5002	0.00278236
61.0002	0.00281669
61.5002	0.00286533
62.0002	0.00287487
62.5002	0.00288059
63.0002	0.00285722
63.5002	0.00285484
64.0002	0.00283338
64.5002	0.00287773
65.0001	0.00291015
65.5001	0.00293447
66.0001	0.00294305
66.5001	0.00288631
67.0001	0.00287534
67.5001	0.00292589
68.0001	0.00300647
68.5001	0.00311805
69.0001	0.00325204
69.5001	0.00328256
70.0001	0.00319912
70.5001	0.00309993
71.0001	0.00304176
71.5001	0.00304271
71.9999	0.00302602
72.5001	0.00308897
73.0001	0.00307943
73.5001	0.00303556
74.0001	0.00293447
74.5001	0.00283672
75.0001	0.00277521
75.5001	0.0027938
76.0001	0.00286771
76.5001	0.00292017
77.0001	0.00299264
77.5	0.00302555
78	0.00301506
78.5	0.00299551
79	0.00291921
79.5	0.00284769
80	0.00282337
80.5	0.00276186
81	0.00266172
81.5	0.00255777
82	0.00249721
82.5	0.00246622
83	0.0024872
83.5	0.00243784
84	0.00237323
84.5	0.00230314
85	0.00221731
85	0.00210215
-20.4992	0.000530843
-19.9992	0.000530247
-19.4992	0.000535134
-18.9992	0.000538353
-18.5001	0.000538114
-17.9992	0.000535969
-17.4992	0.000530366
-16.9992	0.000525478
-16.4992	0.000540499
-15.9992	0.00055993
-15.4992	0.000582222
-14.9992	0.000601057
-14.4992	0.000613216
-13.9992	0.000613336
-13.4993	0.000607375
-12.9995	0.000609878
-12.4992	0.000618938
-11.9992	0.000633959
-11.4993	0.000638131
-10.9993	0.000638012
-10.4993	0.000636939
-9.99925	0.000640992
-9.49925	0.000648383
-8.99927	0.000658993
-8.49927	0.000661377
-7.99928	0.000660542
-7.49928	0.000667814
-6.99928	0.000678781
-6.49928	0.000687364
-5.99934	0.000705604
-5.49928	0.00072122
-4.9993	0.000738982
-4.4993	0.000757936
-3.99931	0.000765447
-3.49931	0.000777844
-2.99931	0.000783566
-2.49931	0.000793699
-1.99931	0.000788454
-1.49931	0.000793222
-0.999329	0.00080717
-0.499329	0.000818972
0.000656128	0.000822548
0.500656	0.000835303
1.00066	0.000842456
1.50066	0.000856522
1.99966	0.000858907
2.50064	0.000874523
3.00064	0.000895742
3.50063	0.000913981
4.00063	0.000933055
4.50063	0.000935916
5.00063	0.000944976
5.50063	0.000952367
6.00063	0.000960473
6.50061	0.000982292
7.00061	0.00100959
7.5006	0.00102139
8.0006	0.00102533
8.5006	0.00102533
9.0006	0.00102568
9.50059	0.00102044
10.0006	0.00101925
10.5006	0.00104333
11.0006	0.00106574
11.5006	0.00107981
12.0006	0.00109506
12.5006	0.00111557
13.0006	0.00112153
13.5006	0.00113583
14.0006	0.00114299
14.5006	0.00116444
15.0005	0.00118924
15.5005	0.00122643
16.0005	0.00123788
16.5005	0.00124479
17.0005	0.00124789
17.5005	0.0012641
18.0005	0.00126792
18.5005	0.00127483
19.0005	0.00129486
19.5005	0.00130511
20.0005	0.00132609
20.5005	0.00135971
21.0005	0.00137449
21.5005	0.00139476
22.0005	0.00142527
22.5005	0.00144029
23.0005	0.00148607
23.5005	0.00152374
24.0005	0.00153852
24.5005	0.00154866
25.0005	0.001557
25.5005	0.00159455
26.0005	0.00160123
26.5005	0.00164581
27.0005	0.00169707
27.5005	0.00179721
28.0005	0.00184274
28.5004	0.00188566
29.0004	0.0019045
29.4983	0.00194169
30.0004	0.00196649
30.5004	0.00190616
31.0004	0.00189997
31.5004	0.00193167
32.0004	0.00197555
32.5004	0.00205638
33.0004	0.00212957
33.5004	0.00214626
34.0004	0.00220586
34.5004	0.00220801
35.0004	0.00219251
35.5004	0.00216724
36.0004	0.0021372
36.5004	0.00207044
37.0004	0.00201942
37.5004	0.00203563
38.0004	0.00204636
38.5004	0.00203015
39.0004	0.00206329
39.5004	0.00209786
40.0004	0.00209548
40.5004	0.00210787
41.0003	0.00212218
41.5003	0.002167
42.0003	0.00217749
42.5003	0.00219156
43.0003	0.00220253
43.5003	0.0021949
44.0003	0.00222231
44.5003	0.00219585
45.0003	0.00216414
45.5	0.00214149
45.9992	0.00217463
46.5003	0.00218703
47.0003	0.00223996
47.5003	0.00227167
48.0003	0.00232889
48.5003	0.00236584
49.0003	0.00242998
49.5003	0.00252582
50.0003	0.00250007
50.5003	0.00233604
51.0003	0.00221778
51.5003	0.00216009
52.0003	0.00212432
52.5003	0.00213291
53.0003	0.00218202
53.5003	0.00217129
54.0002	0.00216247
54.5002	0.00215508
55.0002	0.00214101
55.5002	0.00213553
56.0002	0.00210048
56.5002	0.00208618
57.0002	0.00210191
57.5002	0.00214221
58.0002	0.00218464
58.5002	0.0021887
59.0002	0.00217773
59.5002	0.00213052
60.0002	0.00207187
60.5002	0.00206687
61.0002	0.00203134
61.5002	0.00200202
62.0002	0.00200202
62.5002	0.0020168
63.0002	0.00204708
63.5002	0.00207306
64.0002	0.00204803
64.5002	0.00200249
65.0002	0.00197269
65.4988	0.00198485
65.9998	0.00200106
66.5001	0.00197054
67.0001	0.00192834
67.5001	0.00186277
68.0001	0.00185324
68.5001	0.00186873
69.0001	0.00187135
69.5001	0.00183368
70.0001	0.00181986
70.5001	0.00180984
71.0001	0.00181223
71.5001	0.00179101
72.0001	0.00179387
72.5001	0.00174428
73.0001	0.00176788
73.5001	0.00178839
74.0001	0.0017469
74.5001	0.00168277
75.0001	0.00156809
75.4998	0.00147701
76.0001	0.00143839
76.5001	0.00144673
77.0001	0.00145818
77.5001	0.0014577
78.0001	0.00145913
78.5001	0.00139857
79	0.00132061
79.5	0.00128675
79.9997	0.00129939
80.5	0.00126518
81	0.0012523
81.5	0.00121165
82	0.00113774
82.5	0.00107897
83	0.00103498
83.5	0.000985987
84	0.000951413
84.5	0.000904206
85	0.000839714
85	0.000812057
-5.4993	0.00106693
-4.9993	0.00106908
-4.49931	0.00107504
-3.99931	0.00108076
-3.49931	0.0010922
-2.99931	0.00111128
-2.49931	0.00112224
-1.99933	0.00113059
-1.49933	0.00113822
-0.999329	0.00115157
-0.499344	0.00117374
0.000656128	0.00120474
0.500656	0.00123716
1.00066	0.0012703
1.50066	0.00128985
2.00064	0.00129677
2.50064	0.00128842
3	0.00129295
3.50064	0.00129653
4.00063	0.00132418
4.50063	0.00135089
5.00063	0.00136758
5.50063	0.00137544
6.00061	0.00139094
6.50061	0.00140763
7.00061	0.0014329
7.50061	0.00147224
8.0006	0.00152255
8.5006	0.00156475
9.0006	0.00159527
9.50058	0.00160337
10.0006	0.00162102
10.5006	0.00166584
11.0006	0.0016904
11.5006	0.00172568
12.0006	0.00176168
12.5004	0.00179506
13.0006	0.00181771
13.5005	0.00184584
14.0005	0.00187684
14.5005	0.00189901
15.0005	0.00193644
15.5005	0.00193477
16.0005	0.00192095
16.5005	0.00191403
17.0005	0.00191332
17.5005	0.0019312
18.0005	0.00199153
18.5005	0.00202848
19.0005	0.0020888
19.5005	0.0022216
20.0005	0.00225951
20.5005	0.00218417
21.0005	0.00206353
21.5005	0.00198819
22.0005	0.00194789
22.5005	0.00199939
23.0005	0.00196387
23.5005	0.00196148
24.0005	0.00196888
24.5005	0.00197865
25.0005	0.00201823
25.4984	0.00206591
26.0005	0.00212099
26.5005	0.00217535
27.0005	0.00221087
27.5005	0.00222184
28.0005	0.00222065
28.5004	0.00226165
29.0004	0.00227667
29.5004	0.00227095
30.0004	0.00222684
30.5004	0.00215699
31.0004	0.00211503
31.5004	0.00207402
32.0004	0.00205971
32.5004	0.00207306
33.0004	0.00209714
33.5004	0.00210787
34.0004	0.00208546
34.5004	0.00208713
35.0004	0.0020466
35.5004	0.00205089
36.0004	0.00204207
36.5004	0.00204803
37.0004	0.00204159
37.5004	0.00206853
38.0004	0.00205781
38.5004	0.00205471
39.0004	0.00205328
39.5004	0.0020702
40.0004	0.00208618
40.5004	0.0021012
41.0004	0.00206734
41.5003	0.00202133
42.0003	0.00200154
42.5003	0.00202371
43.0003	0.00204135
43.5003	0.00207068
44.0003	0.00210597
44.5003	0.00214268
45.0003	0.00216366
45.5003	0.00214221
46.0003	0.00211169
46.5003	0.0020652
47.0003	0.00203229
47.5003	0.00203277
48.0003	0.00206997
48.5003	0.00210549
49.0003	0.00214793
49.5003	0.00213291
50.0003	0.00208332
50.5003	0.0020311
51.0003	0.00196745
51.5003	0.00193334
52.0003	0.00187135
52.5003	0.00180198
53.0003	0.00175477
53.5003	0.00172616
54.0002	0.00168753
54.5002	0.00166846
55.0002	0.0016327
55.5002	0.00156546
56.0002	0.0014968
56.5002	0.00146986
57.0002	0.0014844
57.5002	0.00149632
58.0002	0.00149298
58.5002	0.00150348
59.0002	0.00148655
59.5002	0.00145031
60.0002	0.00140787
60.5002	0.00138641
61.0002	0.00136638
61.5002	0.00135661
62.0002	0.00137473
62.5002	0.00136591
63.0002	0.00133158
63.5002	0.00128604
64.0002	0.00125337
64.5002	0.00123573
65.0002	0.00123525
65.5002	0.0012219
66.0001	0.00120307
66.5001	0.0011747
67.0001	0.00112892
67.5001	0.00109149
68.0001	0.00108362
68.5001	0.00108648
69.0001	0.00108338
69.5001	0.00106645
70	0.00103498
70.5001	0.000994213
70.9997	0.000950102
71.4998	0.00090361
72.0001	0.000869993
72.5001	0.000845436
73.0001	0.00083876
73.5001	0.000838999
74.0001	0.000835422
74.5001	0.000811819
75.0001	0.000765923
75.5001	0.000740293
76.0001	0.000730637
76.5001	0.000717524
77.0001	0.000709418
77.5001	0.000686649
78.0001	0.000660185
78.5001	0.000646356
79	0.000630382
79.5	0.000597361
80	0.000573996
80.5	0.00056136
81	0.000553254
81.5	0.000537399
82	0.000507239
82.5	0.000470521
83	0.000442388
83.5	0.000422956
84	0.000410797
84.4976	0.000402691
85	0.00038779
85	0.000371458
