Photodiode Viewing Angle (Degrees) - Plot 0	Lock-in Signal Amplitude (V) - Plot 0
29.5004	0.000698093
30.0004	0.000698093
30.5004	0.000698093
31.0004	0.000705723
31.5004	0.000713352
32.0004	0.000724796
32.5004	0.000734333
33.0004	0.000745777
33.5004	0.000751499
34.0004	0.000753406
34.5004	0.000759128
34.9999	0.000766758
35.5004	0.000783924
36	0.000799183
36.5004	0.000810627
37.0004	0.000818256
37.5004	0.00083733
38.0004	0.000846867
38.5004	0.000858311
39.0004	0.000877384
39.5004	0.000892643
40.0003	0.000913624
40.5003	0.000936512
41.0003	0.000968937
41.5003	0.000989921
42.0003	0.00101662
42.5003	0.00102807
43.0003	0.00103188
43.5003	0.00102616
44.0003	0.00103761
44.5003	0.00106431
45.0003	0.00109483
45.5003	0.0011406
46.0003	0.00117875
46.5003	0.0012188
47.0003	0.00124551
47.5003	0.00128175
48.0003	0.00132561
48.5003	0.00136758
49.0003	0.00140382
49.5003	0.00144196
50.0003	0.00148965
50.5003	0.00154877
51.0003	0.0016079
51.5003	0.00166703
52.0003	0.00174142
52.5002	0.00182153
53.0002	0.00188447
53.5002	0.00197412
54.0002	0.00207902
54.5002	0.00215913
55.0002	0.00226404
55.5002	0.00234987
56.0002	0.00246431
56.5002	0.0026188
57.0002	0.0027981
57.5002	0.00296403
58	0.00313188
58.5	0.00331499
59.0002	0.00349046
59.5002	0.00370599
60.0002	0.00396731
60.5002	0.00426105
61.0002	0.00461963
61.5002	0.00496486
62.0002	0.00528529
62.5002	0.00563625
63.0002	0.00607303
63.5002	0.00658992
64.0002	0.00727847
64.5002	0.00788122
65.0001	0.0084973
65.5001	0.00913626
66.0001	0.00983626
66.5001	0.010706
67.0001	0.0116788
67.5001	0.0129185
68.0001	0.014164
68.5001	0.015709
69.0001	0.017315
69.5001	0.0188028
70.0001	0.0203801
70.5001	0.0219651
71.0001	0.0237886
71.5001	0.0260774
71.9991	0.0288659
72.4989	0.0312693
72.9988	0.0335295
73.5001	0.0349848
74.0001	0.035742
74.5001	0.036423
75.0001	0.037142
75.5001	0.0378287
76.0001	0.0377333
76.5001	0.037657
77.0001	0.0370219
77.5	0.0361845
78	0.0346186
78.4998	0.0330336
78.9995	0.0318511
79.4995	0.0306894
80	0.0298749
80.5	0.0289384
81	0.027548
81.5	0.0261251
82	0.024666
82.5	0.0234224
83	0.0221692
83.5	0.0208913
84	0.019766
84.5	0.01886
85	0.0175191
85	0.0164415
29.5003	0.000711445
30.0004	0.000715617
30.5004	0.000723723
31.0004	0.000727538
31.5004	0.000735048
32.0004	0.000744466
32.5004	0.000750188
33.0004	0.000761513
33.5004	0.000767473
34.0004	0.000776771
34.5004	0.00078154
35.0004	0.000787977
35.5004	0.000800852
36.0004	0.000813249
36.5004	0.000826124
37.0004	0.000839952
37.5004	0.000852112
38.0004	0.000867013
38.5004	0.00088108
39.0004	0.000898603
39.5004	0.000914816
40.0003	0.000930194
40.5003	0.000960473
41.0003	0.000988133
41.5003	0.00101984
42.0003	0.0010413
42.5003	0.0010599
43.0003	0.00106252
43.5003	0.00106455
44.0003	0.00106645
44.5003	0.00108362
45.0003	0.00111771
45.5003	0.00115777
46.0003	0.00120664
46.5003	0.00124884
47.0003	0.00128175
47.5003	0.00131751
48.0003	0.00134803
48.5003	0.0013845
49.0003	0.00143159
49.5003	0.00147916
50.0003	0.00153161
50.5003	0.00158692
51.0003	0.00163651
51.5003	0.00170136
52.0003	0.00176812
52.5002	0.00183488
53.0002	0.00190354
53.5002	0.00200273
54.0002	0.00210001
54.5002	0.00220491
55.0002	0.00229265
55.5002	0.00239564
56.0002	0.00253107
56.5002	0.0026703
57.0002	0.00283243
57.5002	0.0030079
58.0002	0.00319482
58.5002	0.00337221
59.0002	0.00356485
59.5002	0.00378801
60.0002	0.00401881
60.5002	0.00432399
61.0002	0.00467303
61.5002	0.0050278
62.0002	0.00535205
62.5002	0.00567821
63.0002	0.00607494
63.5002	0.00661662
64.0002	0.00725368
64.5002	0.00791365
65.0001	0.00863463
65.5001	0.00932699
66.0001	0.0100079
66.5001	0.0107995
67.0001	0.0118104
67.5001	0.0128022
68.0001	0.0142327
68.5001	0.0158044
69.0001	0.0174333
69.5001	0.0188657
70.0001	0.0203058
70.5001	0.0219098
71.0001	0.0234185
71.5001	0.0257035
72.0001	0.0281755
72.5001	0.0305139
73.0001	0.0328829
73.5001	0.0341818
74.0001	0.0347407
74.5001	0.0351069
75.0001	0.0353491
75.5001	0.0356753
76.0001	0.0361331
76.5001	0.0358546
77.0001	0.0354807
77.5	0.0343592
78	0.0328238
78.5	0.0316241
79	0.0302507
79.5	0.0292417
80	0.0285112
80.5	0.0275689
81	0.0261918
81.5	0.0246965
82	0.0234357
82.5	0.0221292
83	0.0209924
83.5	0.01989
84	0.0188524
84.5	0.0175859
85	0.0165216
85	0.0156193
29.5004	0.000714306
30.0004	0.000715021
30.5004	0.000723485
31.0004	0.000729326
31.5004	0.000737552
32.0004	0.000741843
32.5004	0.000753406
33.0004	0.000760201
33.5004	0.000771645
34.0004	0.00077844
34.5004	0.000785116
35.0004	0.000790838
35.5004	0.000801805
36.0004	0.000814203
36.5004	0.00083125
37.0004	0.000844363
37.5004	0.000852112
38.0004	0.000869397
38.5004	0.000876192
39.0001	0.000895862
39.5001	0.000916246
40.0003	0.000931744
40.5003	0.000962142
41.0003	0.000993378
41.5003	0.00101782
42.0003	0.00103939
42.5003	0.00106228
43.0003	0.00106908
43.5003	0.00106598
44.0003	0.00106431
44.5003	0.00108171
45.0003	0.00111938
45.5003	0.00116051
46.0003	0.00120676
46.5003	0.00125278
47.0003	0.00128854
47.5003	0.00131858
48.0003	0.0013485
48.5003	0.00138617
49.0003	0.00143433
49.5003	0.00148392
50.0003	0.00153399
50.5003	0.00158644
51.0003	0.00163508
51.5003	0.0016985
52.0003	0.00177146
52.5002	0.00183917
53.0002	0.00190926
53.5002	0.00200321
54.0002	0.00209762
54.5002	0.0021968
55.0002	0.00229217
55.5002	0.00240518
56.0002	0.0025344
56.5002	0.00267412
57.0002	0.0028329
57.5002	0.00302173
58.0002	0.00320102
58.5002	0.00338604
59.0002	0.00356485
59.5002	0.00379039
60.0002	0.00402072
60.5002	0.00433353
61.0002	0.00470021
61.5002	0.00503591
62.0002	0.00536063
62.5002	0.00568011
63.0002	0.00610164
63.5002	0.00665477
64.0002	0.00731471
64.5002	0.00802428
65.0001	0.00875479
65.5001	0.00938803
66.0001	0.0100728
66.5001	0.0108758
67.0001	0.0118447
67.5001	0.0129071
68.0001	0.0143166
68.5001	0.015854
69.0001	0.0173951
69.5001	0.0189553
70.0001	0.0204469
70.5001	0.0218259
71.0001	0.0235502
71.5001	0.0257245
72.0001	0.0279523
72.5001	0.0305616
73.0001	0.0324519
73.5001	0.0337012
74.0001	0.034199
74.5001	0.0347102
75.0001	0.0348055
75.5001	0.0352347
76.0001	0.0358164
76.5001	0.035557
77.0001	0.0347788
77.5	0.0338671
78	0.0324233
78.5	0.0313151
79	0.0300733
79.5	0.0290319
80	0.0282327
80.5	0.0272275
81	0.0257741
81.5	0.0244886
82	0.023388
82.5	0.0221578
83	0.0209008
83.5	0.01993
84	0.0186025
84.5	0.0172635
85	0.0163823
85	0.0154133
29.5004	0.000722889
30.0004	0.000728611
30.5004	0.000734333
31.0004	0.00073624
31.5004	0.000741962
32.0004	0.000751499
32.5004	0.000762943
32.999	0.000770573
33.4988	0.000782017
34.0004	0.000791553
34.5004	0.000793461
35.0004	0.00080109
35.5004	0.000812534
36.0004	0.0008297
36.5004	0.000843052
37.0004	0.000854496
37.5004	0.000871662
38.0004	0.000881199
38.5004	0.000898365
39.0004	0.000915531
39.5004	0.000928883
40.0003	0.000953678
40.5003	0.00097657
41.0003	0.00100518
41.5003	0.0010357
42.0003	0.0010624
42.5003	0.00108338
43.0003	0.00109673
43.5003	0.00109864
44.0003	0.00110055
44.5003	0.0011139
45.0003	0.00114442
45.5003	0.00117875
46.0003	0.00122643
46.5003	0.00127221
47.0003	0.00131799
47.5003	0.00135995
48.0002	0.00139046
48.5003	0.00143243
49.0003	0.00148583
49.5003	0.00154305
50.0003	0.00160218
50.5003	0.00164986
51.0003	0.00170899
51.5003	0.00178338
52.0003	0.00186158
52.5002	0.00193215
53.0002	0.00202562
53.5002	0.00210954
54.0002	0.00220872
54.5002	0.00232317
55.0002	0.00242044
55.5002	0.00254633
56.0002	0.00267603
56.5002	0.00281908
57.0002	0.00298692
57.5002	0.00316812
58.0002	0.003397
58.5002	0.00360872
59.0002	0.00379182
59.5002	0.00399783
60.0002	0.00425151
60.5002	0.00454143
61.0002	0.00491336
61.5002	0.00529483
62.0002	0.00565341
62.5002	0.00593951
63.0002	0.00633052
63.5002	0.00683978
64.0002	0.00740817
64.5002	0.0082112
65.0001	0.0089398
65.5001	0.00957495
66.0001	0.0102425
66.5001	0.0109807
66.9984	0.0120068
67.5001	0.0132237
68.0001	0.014515
68.5001	0.0158578
69.0001	0.0173665
69.5001	0.0190202
70.0001	0.0204412
70.5001	0.021988
71.0001	0.023554
71.5001	0.0255281
72.0001	0.027773
72.5001	0.0301992
73.0001	0.0320952
73.5001	0.0341666
74.0001	0.0353854
74.5001	0.0362532
75.0001	0.037411
75.5001	0.0378058
76.0001	0.038748
76.5001	0.0393851
77.0001	0.0396502
77.5	0.0393317
78	0.0381758
78.5	0.0372851
79	0.0366461
79.5	0.0357401
80	0.0351794
80.5	0.0339339
81	0.0323355
81.5	0.0305368
82	0.0293084
82.5	0.0281678
83	0.0267774
83.5	0.0255491
84	0.0240937
84.5	0.0227891
85	0.0215093
85	0.0203115
29.5004	0.000715021
30.0004	0.000722889
30.5004	0.000727419
31.0004	0.000730041
31.5004	0.000735287
32.0004	0.000746731
32.5004	0.000756744
33.0004	0.000765089
33.5004	0.000772957
34.0004	0.000778679
34.5004	0.000783447
35.0004	0.00079656
35.4997	0.00080562
36.0004	0.000821117
36.5004	0.00083423
37.0004	0.000849251
37.5004	0.000868324
38.0004	0.000875954
38.5004	0.000892404
39.0004	0.000905041
39.5004	0.000931982
40.0003	0.000947241
40.5003	0.000969652
41.0003	0.000996597
41.5003	0.00102783
42.0003	0.00105215
42.5003	0.00107146
43.0003	0.00107909
43.5003	0.00107885
44.0003	0.00108147
44.5003	0.0011046
45.0003	0.00113393
45.5003	0.00117708
46.0003	0.00122786
46.5003	0.00126386
47.0003	0.00130654
47.5003	0.00134111
48.0003	0.00137354
48.5003	0.00141502
49.0003	0.00147296
49.5003	0.00152398
50.0003	0.00158072
50.5003	0.00163031
51.0003	0.00168992
51.5002	0.00176001
52.0001	0.00183631
52.4999	0.00190831
53.0002	0.00199367
53.5002	0.00208713
54.0002	0.00219442
54.5002	0.00230218
55.0002	0.00240232
55.5002	0.00251962
56.0002	0.00265886
56.5002	0.00280572
57.0002	0.00298311
57.5002	0.00315858
58.0002	0.00336649
58.5002	0.00356485
59.0002	0.003747
59.5002	0.0039511
60.0002	0.0042229
60.5002	0.00450996
61.0002	0.00488189
61.5002	0.00523379
62.0002	0.00556281
62.4999	0.00586608
63	0.00630191
63.4999	0.00688365
63.9992	0.00745872
64.4998	0.00830084
64.9994	0.00895125
65.5001	0.00946051
66.0001	0.0101319
66.5001	0.0109521
67.0001	0.0120507
67.5001	0.0132237
68.0001	0.0144539
68.5001	0.015896
69.0001	0.0174695
69.5001	0.019024
70.0001	0.0203973
70.5001	0.0220891
71.0001	0.0237256
71.5001	0.0258485
72.0001	0.0281621
72.5001	0.0305005
73.0001	0.0323088
73.5001	0.0341609
74.0001	0.0352099
74.5001	0.0361617
75.0001	0.0374739
75.5001	0.0381205
76.0001	0.0389655
76.5001	0.0394347
77.0001	0.0395529
77.5	0.0392764
78	0.0383608
78.5	0.0373251
79	0.0369437
79.4983	0.0359976
80	0.0352385
80.5	0.0337069
81	0.0318797
81.5	0.0302163
82	0.0290185
82.5	0.0280458
83	0.026703
83.5	0.0253984
84	0.0238191
84.5	0.0225698
85	0.0214292
85	0.0202008
29.5004	0.000731472
30.0004	0.000740532
30.5004	0.000742439
31.0004	0.000741486
31.5004	0.00075293
32.0004	0.000757221
32.5004	0.000768665
33.0004	0.000779156
33.5004	0.0007906
34.0004	0.000794414
34.5004	0.000802997
35.0004	0.000810627
35.5004	0.000823025
36.0004	0.000834946
36.5004	0.000849251
37.0004	0.000866417
37.5004	0.000879291
38.0004	0.000892166
38.5004	0.000907902
39.0004	0.000924114
39.5004	0.000943188
40.0003	0.000958446
40.5003	0.00098706
41.0003	0.00101186
41.5003	0.00104476
42.0003	0.00107098
42.5003	0.00108958
43.0003	0.0011015
43.5003	0.0011015
44.0003	0.00110722
44.5003	0.00112534
45.0003	0.00115491
45.5003	0.00119878
46.0003	0.0012436
46.5003	0.00128604
47.0003	0.00132848
47.5003	0.00136519
48.0003	0.00139523
48.5003	0.00144578
49.0003	0.00149489
49.5003	0.00155116
50.0003	0.00160552
50.5003	0.00165845
51.0003	0.00170851
51.5001	0.00178672
52.0003	0.00186301
52.5002	0.00194026
53.0002	0.00203277
53.5002	0.00213529
54.0002	0.00223781
54.5002	0.0023389
55.0002	0.00245287
55.5002	0.00257207
56.0002	0.00270511
56.5002	0.00285579
57.0002	0.00304367
57.5002	0.00323345
58.0002	0.00344802
58.5002	0.00364067
59.0002	0.00381376
59.4997	0.00404504
60.0002	0.00426725
60.5002	0.00457433
61.0002	0.00496486
61.5002	0.00535205
62.0002	0.0056639
62.5002	0.00598291
63.0002	0.00641063
63.5002	0.00693133
64.0002	0.00755695
64.5002	0.00831991
65.0001	0.00901991
65.5001	0.00965315
66.0001	0.0102635
66.5001	0.0111714
67.0001	0.0121461
67.5001	0.0133496
68.0001	0.0145093
68.5001	0.015833
69.0001	0.0173455
69.5001	0.0187761
70.0001	0.0204011
70.5001	0.0218507
71.0001	0.0234491
71.5001	0.025406
72.0001	0.0275193
72.5001	0.0299264
73.0001	0.032099
73.5001	0.0337317
74.0001	0.034405
74.5001	0.0356104
75.0001	0.0365584
75.5001	0.0371859
76.0001	0.0383227
76.5001	0.0387347
77.0001	0.0389006
77.5	0.038708
78	0.037657
78.5	0.0370066
79	0.0364363
79.5	0.0354464
80	0.0343535
80.5	0.0330565
81	0.0313666
81.5	0.0300657
82	0.0286409
82.5	0.0276185
83	0.0263845
83.5	0.0250684
84	0.0235673
84.5	0.0221902
85	0.0210096
85	0.0198022
29.5004	0.000910286
30.0004	0.000918869
30.5004	0.00092018
31.0004	0.000924472
31.5004	0.000933651
32.0004	0.000942472
32.5004	0.000953082
33.0004	0.000967268
33.5004	0.000983246
34.0004	0.000991829
34.5004	0.0010028
35.0004	0.00100947
35.5004	0.00101805
36.0004	0.00103451
36.5004	0.00104988
37.0004	0.00107289
37.5004	0.0010922
38.0004	0.00110329
38.5004	0.00112391
39.0004	0.0011381
39.5004	0.0011592
40.0003	0.00117911
40.5003	0.00121082
41.0003	0.00124217
41.5003	0.00128377
42.0003	0.00132156
42.5003	0.00134624
43.0003	0.00135828
43.5003	0.00135387
44.0003	0.00135721
44.5003	0.00136925
45.0003	0.00140668
45.5003	0.00144769
46.0003	0.00150681
46.5003	0.00156022
47.0003	0.00161935
47.5003	0.00166894
48.0003	0.00172044
48.5	0.00177766
49.0003	0.00183869
49.5003	0.00189973
50.0003	0.00195886
50.5003	0.00202371
51.0003	0.00209428
51.5003	0.00217248
52.0003	0.00226595
52.5002	0.00235559
53.0002	0.00244524
53.5002	0.00255777
54.0002	0.00268175
54.5002	0.00280763
55.0002	0.00294305
55.5002	0.00309373
56.0002	0.00325586
56.5002	0.00342561
57.0002	0.00363542
57.5002	0.00385286
58.0002	0.00410464
58.5002	0.00431064
59.0002	0.00451472
59.5002	0.00473407
60.0002	0.00498965
60.5002	0.00536922
61.0002	0.00576213
61.5002	0.00615123
62.0002	0.00659183
62.5002	0.00693133
63.0002	0.00729564
63.5002	0.00786024
64.0002	0.00850302
64.5002	0.00918776
65.0001	0.0097962
65.5001	0.010418
66.0001	0.0109978
66.5001	0.0116082
67.0001	0.0123482
67.5001	0.0131627
68.0001	0.0141926
68.5001	0.0151005
69.0001	0.0161306
69.5001	0.0171262
70.0001	0.0179693
70.5001	0.018715
71.0001	0.0194646
71.5001	0.0204393
72.0001	0.0216676
72.5001	0.0227224
73.0001	0.0238591
73.5001	0.0246907
74.0001	0.0251256
74.5001	0.0251237
75.0001	0.025364
75.5001	0.0256864
76.0001	0.0261003
76.5001	0.0261041
77.0001	0.0256482
77.5	0.0252572
78	0.0246564
78.5	0.0240308
79	0.0234796
79.5	0.0228959
80	0.0224191
80.5	0.0219651
81	0.0211564
81.5	0.0199891
82	0.0190622
82.5	0.0180494
83	0.0172292
83.5	0.0164777
84	0.0158044
84.5	0.0147648
85	0.0137787
85	0.0128193
-0.499344	0.000616554
0.000656128	0.000616554
0.500656	0.000617031
1.00065	0.00061417
1.50065	0.000616554
2.00018	0.000617985
2.50063	0.000615124
3.00063	0.00061417
3.50063	0.000618938
4.00063	0.00061417
4.50062	0.000620846
5.00062	0.000620369
5.50062	0.000626091
6.0006	0.00062323
6.5006	0.00062323
7.0006	0.000624184
7.5006	0.000627998
8.0006	0.000629429
8.5005	0.000634197
9.00035	0.000634197
9.50059	0.000635628
10.0006	0.000635628
10.5006	0.000635628
11.0006	0.000637058
11.5006	0.000641827
12.0006	0.000637535
12.5006	0.000647072
13.0006	0.000648502
13.5005	0.000649456
14.0005	0.000654224
14.5005	0.000656608
15.0005	0.000663284
15.5005	0.000665192
16.0005	0.000666145
16.5005	0.000667576
17.0005	0.000673775
17.5005	0.00066996
18.0005	0.000675205
18.5005	0.000675205
19.0004	0.000677589
19.5003	0.000680927
20.0004	0.000686172
20.5001	0.000684265
21.0003	0.000684742
21.4997	0.000687603
21.9995	0.000683311
22.4998	0.000687126
23.0001	0.000690941
23.4994	0.000689033
24.0005	0.000694755
24.5005	0.000696186
25.0005	0.000700954
25.5005	0.000708584
26.0005	0.000712398
26.5005	0.000717644
27.0004	0.000722889
27.5004	0.000729088
28.0004	0.000733379
28.5004	0.000739578
29.0004	0.000744823
29.5004	0.000753883
30.0004	0.000758175
30.5004	0.000766281
31.0003	0.000770573
31.5003	0.000782494
32.0004	0.000787739
32.5004	0.000796322
32.9999	0.000804905
33.5004	0.000816826
33.9997	0.000823501
34.5003	0.000838283
35.0004	0.000839714
35.5004	0.000850204
36.0004	0.000862602
36.5004	0.000879291
37.0004	0.000897888
37.5004	0.000907902
38.0004	0.000920299
38.5004	0.000933174
39.0004	0.000955109
39.5004	0.000970844
40.0003	0.000989921
40.5003	0.00101519
41.0003	0.0010438
41.5003	0.001081
42.0003	0.00111008
42.5003	0.00113679
43.0003	0.00115252
43.5003	0.00115824
44.0003	0.00115491
44.5003	0.00117017
45.0003	0.00119353
45.5003	0.00123215
46.0003	0.00128032
46.4985	0.00132371
47.0003	0.00137187
47.5003	0.00141526
48.0003	0.00145913
48.5003	0.0015092
49.0003	0.0015607
49.5003	0.00162078
50.0003	0.00167418
50.5003	0.00172377
51.0003	0.00177718
51.5003	0.00184823
52.0003	0.00193454
52.5002	0.00203229
53.0002	0.00210287
53.4994	0.00219823
53.9995	0.00231363
54.5002	0.00242616
55.0002	0.00254442
55.5002	0.00267841
56.0002	0.0028124
56.5002	0.00295784
57.0002	0.00311042
57.5002	0.00330164
58.0002	0.00354101
58.5002	0.00372316
59.0002	0.00392154
59.5002	0.00415042
60.0002	0.00435641
60.5002	0.00466159
61.0002	0.00498965
61.5002	0.00536349
62.0002	0.00574878
62.5002	0.00614169
63.0002	0.00651935
63.5002	0.00702289
64.0002	0.00761417
64.5002	0.00837713
65.0001	0.00913626
65.5001	0.0097962
66.0001	0.0105096
66.5001	0.0112572
67.0001	0.0121308
67.5001	0.0132676
68.0001	0.0145608
68.5001	0.0159456
69.0001	0.0175439
69.5001	0.0189744
70.0001	0.0205194
70.5001	0.0220262
71.0001	0.0232507
71.5001	0.0246545
72.0001	0.0263788
72.5001	0.0284654
73.0001	0.03043
73.5001	0.0319788
74.0001	0.0333598
74.5001	0.0337679
75.0001	0.0343592
75.5001	0.0349162
76.0001	0.035332
76.5001	0.0353854
77.0001	0.0351489
77.5	0.0346682
78	0.0343173
78.5	0.0338671
79	0.0329535
79.5	0.0319006
80	0.0303041
80.5	0.0296689
81	0.0287877
81.5	0.0277978
82	0.0268537
82.5	0.0253373
83	0.0241662
83.5	0.0230294
84	0.0220319
84.5	0.0209638
85	0.0197774
85	0.0185834
-0.499344	0.000663523
0.000656128	0.000662807
0.500656	0.000661258
1.00065	0.000660662
1.50065	0.000663821
2.00063	0.000663046
2.50063	0.000664297
3.00063	0.00066388
3.50063	0.000662688
4.00063	0.000663403
4.50062	0.000669304
5.00062	0.000671271
5.50062	0.000671271
6.0006	0.000673357
6.5006	0.00067151
7.0006	0.000673298
7.5006	0.000673298
8.0006	0.000675205
8.50059	0.000680927
9.00059	0.000682835
9.50059	0.000682835
10.0006	0.00067902
10.5006	0.000684742
11.0006	0.000682835
11.5003	0.000684742
12.0006	0.000688557
12.5006	0.000692371
13.0006	0.000700001
13.5005	0.000703815
14.0004	0.000703815
14.5005	0.000705723
15.0005	0.00070763
15.5001	0.000709537
16.0003	0.000715259
16.5002	0.000715259
17.0003	0.000719074
17.5002	0.000717167
17.9999	0.000722889
18.5005	0.000728611
19.0005	0.000728611
19.5005	0.000730518
20.0005	0.000734333
20.5005	0.000732426
21.0005	0.000732426
21.5005	0.000728611
22.0005	0.000738148
22.5005	0.000738148
23.0003	0.00073624
23.5005	0.000738148
24.0005	0.000741962
24.5005	0.000745777
25.0005	0.000747684
25.5005	0.000759128
26.0005	0.000766758
26.5005	0.000768665
27.0004	0.000778202
27.5004	0.000782017
28.0004	0.000789646
28.5004	0.000793461
29.0004	0.000804905
29.5004	0.000810627
30.0004	0.000820164
30.5004	0.000825886
31.0004	0.0008297
31.5004	0.00083733
32.0004	0.000846867
32.5004	0.000854496
33.0004	0.000869755
33.5004	0.000881199
34.0004	0.000886921
34.5004	0.000892643
35.0004	0.000896458
35.5004	0.000909809
36.0004	0.000926975
36.5004	0.000946049
36.9981	0.000961307
37.5004	0.000974659
38.0004	0.000989921
38.5004	0.00100899
39.0004	0.00102616
39.5004	0.00104142
40.0003	0.00106622
40.5003	0.00109673
41.0003	0.00112916
41.5003	0.00116921
42.0003	0.00119973
42.5003	0.00122071
43.0003	0.00122834
43.5003	0.00122453
44.0003	0.00122071
44.5003	0.00123978
44.9988	0.00127602
45.5003	0.00132561
46.0003	0.00138093
46.5003	0.00143243
47.0003	0.00148202
47.5003	0.00152016
48.0003	0.00157166
48.5003	0.00162125
49.0003	0.00166894
49.5003	0.00171662
50.0003	0.00177575
50.5003	0.00183488
51.0003	0.00191499
51.4996	0.0019951
52.0003	0.00208093
52.5002	0.00215913
53.0002	0.00224306
53.5002	0.00236322
54.0002	0.00247575
54.5002	0.00259401
55.0002	0.00273134
55.5002	0.00285532
56.0002	0.00298311
56.5002	0.00314523
57.0002	0.00333788
57.5002	0.00355913
58.0002	0.00376321
58.5002	0.00398067
59.0002	0.00416759
59.5002	0.00438884
60.0002	0.00460246
60.5002	0.00493625
61.0002	0.00530627
61.5002	0.00568202
62.0002	0.0060654
62.5002	0.00641826
63.0002	0.00685313
63.5002	0.00737956
64.0002	0.00800139
64.5002	0.00871474
65.0001	0.00948721
65.5001	0.0100728
66.0001	0.0107194
66.5001	0.0115529
67.0001	0.012476
67.5001	0.0135995
68.0001	0.0148278
68.5001	0.0160409
69.0001	0.0172426
69.5001	0.0185605
70.0001	0.0197316
70.5001	0.0207139
71.0001	0.0220491
71.5001	0.0234281
72.0001	0.0251161
72.5001	0.0267526
73.0001	0.0281411
73.5001	0.029194
74.0001	0.0298272
74.5001	0.0302583
75.0001	0.0304204
75.4994	0.0306855
76.0001	0.0310708
76.5001	0.0311223
77.0001	0.0311986
77.5	0.0310308
78	0.0304872
78.5	0.0295354
79	0.0285665
79.5	0.0278455
79.9997	0.0272828
80.5	0.026724
81	0.0254136
81.5	0.024439
82	0.0233289
82.5	0.022133
83	0.0210649
83.5	0.0200216
84	0.0189382
84.5	0.0178834
85	0.0170308
85	0.0160695
-0.501007	0.0006609
0.000656128	0.000656608
0.500656	0.000653986
1.00065	0.0006609
1.50065	0.000661854
2.00063	0.000658516
2.50063	0.000661854
3.00063	0.000659231
3.50063	0.000661615
4.00063	0.000663999
4.50062	0.000665907
5.00062	0.000667099
5.50062	0.000667814
6.0006	0.00067139
6.5006	0.00066996
6.9997	0.000668768
7.49937	0.000673298
8.0006	0.000677589
8.50059	0.000677351
9.00059	0.000678066
9.50059	0.000683311
10.0006	0.000679735
10.5006	0.000680689
11.0006	0.000681404
11.5006	0.000682119
12.0006	0.000689033
12.5006	0.000693087
13.0006	0.000698809
13.5005	0.000701431
14.0005	0.000701431
14.5005	0.000705961
15.0005	0.000709061
15.5005	0.000708584
16.0005	0.000713352
16.5005	0.000716452
17.0005	0.000716452
17.5005	0.000718597
18.0005	0.000722889
18.5005	0.000724558
19.0005	0.000727896
19.5005	0.000732902
20.0005	0.000732664
20.5005	0.000731234
21.0005	0.000735287
21.5005	0.000735763
22.0005	0.000736479
22.5005	0.000737671
23.0005	0.000741247
23.5005	0.000736956
24.0005	0.000740055
24.5005	0.000746969
25.0005	0.000753883
25.5005	0.000758413
26.0005	0.000766996
26.5005	0.000772003
27.0004	0.000774387
27.5004	0.000784162
28.0004	0.000789169
28.5004	0.000797275
29.0004	0.000803236
29.5004	0.000810388
30.0004	0.000818018
30.5004	0.00082374
31.0004	0.000830892
31.5003	0.000839237
32.0004	0.000845913
32.5002	0.000855688
33.0004	0.000868563
33.5004	0.000873808
34.0004	0.000885729
34.5004	0.000890736
35.0004	0.000900272
35.5004	0.00091124
36.0004	0.000926737
36.5004	0.000945572
37.0004	0.000959877
37.5004	0.00097442
38.0004	0.000986584
38.5004	0.00100709
39.0004	0.00102592
39.5004	0.00104714
40.0003	0.00106812
40.5003	0.00109459
41.0003	0.00112963
41.5003	0.00116826
42.0003	0.00120044
42.5003	0.00121737
43.0003	0.00122643
43.5003	0.00122119
44.0003	0.00122214
44.5003	0.00124169
45.0003	0.0012796
45.5003	0.00132466
46.0003	0.00138093
46.5003	0.0014267
47.0003	0.0014763
47.5003	0.00152207
48.0003	0.00156785
48.5003	0.00162125
49.0003	0.00166322
49.5003	0.00171662
50.0003	0.00177575
50.5003	0.00183678
51.0003	0.00191308
51.5003	0.00198747
52.0003	0.00208093
52.5002	0.0021515
53.0002	0.00223924
53.5002	0.00235941
54.0002	0.00247194
54.5002	0.00258256
55.0002	0.00272943
55.4989	0.00284578
56.0002	0.00297357
56.5002	0.00314714
57.0002	0.00333406
57.5002	0.00355531
58.0002	0.00376894
58.5002	0.00397685
59.0002	0.00415805
59.5002	0.00439075
60	0.00461581
60.5002	0.00493625
61.0002	0.005312
61.5002	0.00568774
62.0002	0.00606349
62.5002	0.00643161
63.0002	0.00684932
63.5002	0.00739101
64.0002	0.00801665
64.5002	0.00875479
65.0001	0.00951201
65.5001	0.0100995
66.0001	0.010748
66.5001	0.0115929
67.0001	0.0125104
67.5001	0.0136662
68.0001	0.0149193
68.5001	0.0161477
69.0001	0.017336
69.5001	0.0186731
70.0001	0.0198346
70.5001	0.0208436
71.0001	0.0221597
71.5001	0.0235502
72.0001	0.025179
72.5001	0.0269166
73.0001	0.028349
73.5001	0.0293847
74.0001	0.0300905
74.5001	0.0304471
75.0001	0.030636
75.5001	0.0308629
75.9994	0.0312998
76.5001	0.0313704
77.0001	0.0314448
77.5	0.0311872
78	0.030737
78.5	0.0296651
79	0.0286409
79.5	0.0279084
80	0.0273877
80.5	0.0267659
81	0.0255033
81.5	0.0245649
82	0.0233518
82.5	0.0222188
83	0.0211393
83.5	0.0200292
84	0.0190107
84.5	0.0179425
85	0.0170861
85	0.0160848
-0.499344	0.000644449
0.000656128	0.000645403
0.500656	0.000646356
1.00065	0.000647787
1.50065	0.000648979
2.00063	0.000648741
2.50063	0.000646595
3.00063	0.000648025
3.50063	0.000649456
4.00063	0.000653747
4.50062	0.000652794
5.00062	0.000657085
5.50062	0.000657562
6.0006	0.000660662
6.5006	0.000661377
7.0006	0.000663999
7.50036	0.000665668
8.00054	0.000664238
8.50059	0.000668529
9.0005	0.000670437
9.50059	0.000668768
10.0002	0.000668529
10.5002	0.00067139
10.9997	0.000672821
11.5006	0.00067449
12.0006	0.000678543
12.5006	0.00068045
13.0006	0.000690464
13.5005	0.000690226
14.0005	0.000693802
14.5005	0.000693563
15.0005	0.000701431
15.5005	0.00070167
16.0005	0.000702623
16.5005	0.00070763
17.0005	0.000708584
17.5005	0.000711922
18.0005	0.000711206
18.5005	0.000712875
19.0005	0.000715021
19.5005	0.000717167
20.0005	0.000724558
20.5005	0.000720982
21.0005	0.00072122
21.5005	0.000724081
22.0005	0.000722889
22.5005	0.000724081
23.0005	0.000727419
23.5005	0.000731234
24.0005	0.000730757
24.5005	0.000738863
25.0005	0.000740055
25.5005	0.000751499
26.0005	0.000753883
26.5005	0.000761274
27.0004	0.000764612
27.5004	0.000767235
28.0004	0.000776533
28.5004	0.000783209
29.0004	0.000791315
29.5004	0.000798944
30.0004	0.000804428
30.5004	0.000809912
31.0004	0.000816587
31.5004	0.000820879
32.0004	0.00083423
32.5004	0.000844959
33.0004	0.000852589
33.5004	0.000866417
34.0004	0.000871424
34.5004	0.000876192
35.0004	0.000885252
35.5004	0.000898365
36.0004	0.000911955
36.5004	0.000931982
37.0004	0.000946525
37.5004	0.000963215
38.0004	0.000975374
38.5004	0.000987776
39.0004	0.00100804
39.5004	0.00102425
40.0003	0.00105143
40.5003	0.00108243
41.0003	0.00111414
41.5003	0.00114227
42.0003	0.00116826
42.5003	0.00118471
43.0003	0.00119854
43.5003	0.00120188
44.0003	0.00120688
44.5003	0.00123096
45.0003	0.0012641
45.5003	0.00132204
45.9979	0.00136185
46.5003	0.00140954
47.0003	0.00145531
47.5003	0.00149251
48.0003	0.00154043
48.5003	0.00158144
49.0003	0.00163842
49.5003	0.00169779
50.0003	0.00175334
50.5003	0.00181151
51.0002	0.00187636
51.5002	0.0019517
52	0.00203396
52.5002	0.0021136
53.0002	0.00220062
53.5002	0.00231864
54.0002	0.0024357
54.5002	0.00254108
55.0002	0.0026591
55.5002	0.00278331
56.0002	0.00291635
56.5002	0.00308801
57.0002	0.00328256
57.5002	0.00349809
58.0002	0.00370981
58.5002	0.00387193
59.0002	0.00406078
59.5002	0.00429729
60.0002	0.00456813
60.5002	0.00492099
61.0002	0.0052605
61.5002	0.0056248
62.0002	0.0059872
62.5002	0.00634578
63.0002	0.0067673
63.5002	0.00737956
64.0002	0.00807959
64.5002	0.0088864
65.0001	0.00956351
65.5001	0.0101681
66.0001	0.0109196
66.5001	0.011673
67.0001	0.0126114
67.5001	0.0138379
68.0001	0.0152817
68.4999	0.0167199
68.9998	0.0182573
69.4997	0.0195733
69.9994	0.0211145
70.5001	0.0224725
71.0001	0.0238038
71.5001	0.0255681
71.9991	0.0277444
72.4987	0.0300218
72.9992	0.0316508
73.5001	0.0328295
74.0001	0.0338137
74.5001	0.0346854
75.0001	0.0351946
75.5001	0.0359271
76.0001	0.0363257
76.5001	0.0358355
77.0001	0.0356848
77.5	0.0353949
78	0.0348437
78.5	0.0341704
79	0.0332911
79.5	0.0320666
80	0.0311509
80.5	0.0301877
81	0.029112
81.5	0.0281125
82	0.0269834
82.5	0.0254232
83	0.024294
83.5	0.0231134
84	0.021906
84.5	0.0207978
85	0.0194551
85	0.0183011
-0.499344	0.000652198
0.000656128	0.000651959
0.500656	0.000652675
1.00065	0.000653509
1.50065	0.000653271
2.00063	0.000653151
2.50063	0.00065339
3.00063	0.000653867
3.50063	0.000653509
4.00063	0.000659827
4.50062	0.000660185
5.00062	0.000662688
5.50062	0.000664238
6.0006	0.000661138
6.5006	0.000666026
7.0006	0.00066698
7.5006	0.000668529
8.0006	0.000674609
8.50059	0.000675444
9.00059	0.000673059
9.50059	0.000673715
10.0006	0.000674788
10.5006	0.000676278
11.0006	0.000673477
11.5006	0.000678245
12.0006	0.000686709
12.5006	0.000689689
13.0006	0.000692133
13.5005	0.000698034
14.0005	0.00069702
14.5005	0.000702385
15.0005	0.000702146
15.5005	0.000708584
16.0005	0.000710849
16.5005	0.000711385
17.0005	0.000712279
17.5005	0.000714961
18.0005	0.000719372
18.5005	0.00071818
19.0005	0.000722412
19.5005	0.000725571
20.0005	0.000725333
20.5005	0.000728253
21.0005	0.000726167
21.5005	0.0007273
22.0003	0.000729684
22.5005	0.000728372
23.0005	0.000730518
23.5005	0.000729565
24.0005	0.000732902
24.5005	0.000739578
25.0005	0.000744823
25.5005	0.00075293
26.0005	0.000759128
26.5005	0.000762466
27.0004	0.000767235
27.5004	0.000775341
28.0004	0.00078154
28.5004	0.000787262
29.0004	0.000794891
29.5004	0.000804905
30.0004	0.000811581
30.5004	0.000816349
31.0004	0.000819687
31.5004	0.000825886
32.0004	0.000839714
32.5004	0.000850204
33.0004	0.000857834
33.5004	0.000870232
34.0004	0.000875954
34.5004	0.000878815
35.0004	0.000894073
35.5004	0.00090361
36.0004	0.000917438
36.5004	0.000929836
37.0004	0.00095034
37.5004	0.000967506
38.0004	0.000982769
38.5004	0.00100184
39.0004	0.00101901
39.5004	0.00103617
40.0003	0.00106335
40.5003	0.00109101
41.0003	0.00111628
41.5003	0.00115157
42.0003	0.00117589
42.5003	0.00119592
43.0003	0.00120307
43.5003	0.00120688
44.0003	0.00121117
44.5003	0.00123215
45.0003	0.00128222
45.5003	0.00133229
46.0003	0.00138522
46.5003	0.00142527
47.0003	0.00146151
47.5003	0.00150157
48.0003	0.00155021
48.5003	0.00160075
49.0003	0.00165463
49.5003	0.00170947
50.0003	0.0017705
50.5003	0.00182963
51.0003	0.00190068
51.5003	0.00197603
52.0003	0.00205375
52.5002	0.00212575
53.0002	0.00221111
53.5002	0.00231649
54.0002	0.00243999
54.5002	0.00254585
55.0002	0.002656
55.5002	0.00277425
56.0002	0.00289537
56.5002	0.00303365
57.0002	0.00318815
57.5002	0.00335504
58.0002	0.00352956
58.5002	0.0036812
59.0002	0.00382902
59.5002	0.00403598
60.0002	0.00428298
60.5002	0.00458434
61.0002	0.00490859
61.5002	0.00520614
62.0002	0.00549415
62.5002	0.00582698
63.0002	0.00617793
63.5002	0.00661948
64.0002	0.00713542
64.5002	0.0076485
65.0001	0.00813967
65.5001	0.00846678
66.0001	0.00889975
66.5001	0.00941283
67.0001	0.0101472
67.5001	0.0108777
68.0001	0.0117245
68.5001	0.0125409
69.0001	0.0132867
69.5001	0.0140343
70.0001	0.0147343
70.5001	0.015564
71.0001	0.016512
71.5001	0.0177442
72.0001	0.0194951
72.5001	0.020712
73.0001	0.0221444
73.5001	0.0232126
74.0001	0.024006
74.5001	0.0247003
75.0001	0.0259038
75.5001	0.027052
76.0001	0.0279218
76.5001	0.0282537
77.0001	0.0283071
77.5	0.0281755
78	0.0281087
78.5	0.028227
79	0.0279275
79.5	0.0275747
80	0.0272008
80.5	0.0264646
81	0.025818
81.5	0.024809
82	0.0237657
82.5	0.0228349
83	0.0219785
83.5	0.0211927
84	0.0204316
84.5	0.0195619
85	0.018551
85	0.0177938
-0.499443	0.000655655
0.000656128	0.000657562
0.500656	0.000653271
1.00065	0.000657562
1.50065	0.000656608
2.00063	0.000658039
2.50063	0.000656608
3.00063	0.000661377
3.50063	0.000661854
4.00063	0.000663046
4.50062	0.000663999
5.00062	0.000666622
5.50062	0.000667099
6.0006	0.00066996
6.50055	0.000667099
7.0006	0.000669245
7.5006	0.000672821
8.0006	0.000674251
8.50059	0.000675682
9.00059	0.000677112
9.50059	0.00067592
10.0006	0.000677828
10.5006	0.000675444
11.0006	0.00068045
11.5006	0.000684503
12.0006	0.000683311
12.5006	0.000691418
13.0006	0.000692133
13.5005	0.000700716
14.0005	0.000701193
14.5005	0.000703577
15.0005	0.000704769
15.5005	0.000707153
16.0005	0.000711922
16.5005	0.000712637
17.0005	0.000719789
17.5005	0.000719789
18.0002	0.000719789
18.5005	0.000721697
19.0003	0.000723843
19.5	0.000723843
20.0004	0.000724319
20.5005	0.000728611
21.0005	0.000726942
21.5005	0.000732664
22.0005	0.000730995
22.5005	0.000733379
23.0005	0.00073171
23.5005	0.000734095
24.0005	0.000735525
24.5005	0.000741247
25.0005	0.000749592
25.5005	0.000752453
26.0005	0.000761274
26.5005	0.000765804
27.0004	0.000772003
27.5004	0.000774387
28.0004	0.000779632
28.5004	0.000787739
29.0004	0.000796083
29.5004	0.000803951
30.0004	0.000809196
30.5004	0.000820402
31.0004	0.000825409
31.5004	0.000832561
32.0004	0.000842575
32.5004	0.00085545
33.0004	0.000862602
33.5004	0.000871662
34.0004	0.000876907
34.5004	0.000882152
35.0004	0.000891212
35.5004	0.000906948
36.0004	0.000922207
36.5004	0.000938896
37.0004	0.000953201
37.5004	0.000969891
38.0003	0.000985153
38.5003	0.00100184
39.0002	0.00101758
39.5004	0.00104094
40.0003	0.00106717
40.5003	0.00109483
41.0003	0.00112868
41.5003	0.00116158
42.0003	0.00118018
42.5003	0.00119305
43.0003	0.00120021
43.5003	0.00120354
44.0003	0.00121594
44.5003	0.00124598
45.0003	0.00128461
45.5003	0.0013342
46.0003	0.00138951
46.5003	0.00142813
47.0003	0.0014763
47.5003	0.00151253
48.0003	0.00155879
48.5003	0.00161124
49.0003	0.00166465
49.5003	0.00171853
50.0003	0.00177813
50.5003	0.00184346
51.0003	0.00191069
51.5003	0.00198509
52.0003	0.00206186
52.5002	0.00213481
53.0002	0.00222303
53.5002	0.00233604
54.0002	0.00244905
54.5002	0.0025468
55.0002	0.00266077
55.5002	0.00277616
56.0002	0.00289346
56.5002	0.00301029
57.0002	0.003181
57.5002	0.0033455
58.0002	0.00352956
58.5002	0.00368454
59.0002	0.00384094
59.5002	0.00402835
60.0002	0.00425723
60.5002	0.00453904
61.0002	0.00487474
61.5002	0.00519946
62.0002	0.00552657
62.5002	0.00582793
63.0002	0.00613788
63.5002	0.00661662
64.0002	0.00711635
64.5002	0.00762752
65.0001	0.00798994
65.5001	0.00837141
66.0001	0.0088101
66.5001	0.00928122
67.0001	0.00998694
67.5001	0.0107155
68.0001	0.0115662
68.5001	0.0122948
69.0001	0.0131589
69.5001	0.0137635
70.0001	0.0145913
70.4989	0.0154591
71.0001	0.016369
71.5001	0.0177518
72.0001	0.0191785
72.5001	0.0205308
73.0001	0.0217019
73.5001	0.0227395
74.0001	0.0234758
74.5001	0.0244085
75.0001	0.0252324
75.5001	0.0263635
76.0001	0.0270959
76.5001	0.0274335
77.0001	0.0272485
77.5	0.0272981
78	0.0276242
78.5	0.0273191
79	0.0270883
79.5	0.0266725
80	0.0262853
80.5	0.025673
81	0.0249807
81.5	0.0240041
82	0.02306
82.5	0.022091
83	0.0212575
83.5	0.0204545
84	0.0197469
84.5	0.0187761
85	0.0180265
85	0.0172158
-0.499344	0.00069857
0.000656128	0.000698332
0.500656	0.000702146
1.00065	0.000701193
1.50065	0.000702385
2.00063	0.000705961
2.50063	0.000704054
3.00063	0.000705484
3.50063	0.0007031
4.00063	0.000705961
4.50062	0.00071073
5.00062	0.000709776
5.50062	0.000710014
6.0006	0.000716928
6.5006	0.000714067
7.0006	0.000717882
7.5006	0.000719789
8.0006	0.00072265
8.50059	0.000721935
9.00059	0.000724796
9.50059	0.000725988
10.0006	0.000722889
10.5006	0.00072718
11.0006	0.000731234
11.5006	0.000729088
12.0006	0.000734333
12.5006	0.000739817
13.0006	0.000741247
13.5005	0.000747923
14.0005	0.000751261
14.5005	0.000754599
15.0005	0.000755791
15.5005	0.000756267
16.0005	0.000759844
16.5005	0.000766996
17.0005	0.000765566
17.4996	0.000767235
17.9995	0.000768904
18.5005	0.000773672
18.9987	0.000774387
19.4987	0.000777964
20.0005	0.000777725
20.5005	0.000777248
21.0005	0.000782732
21.5005	0.000782732
22.0005	0.000783924
22.5005	0.000784878
23.0005	0.000785593
23.5005	0.00078607
24.0005	0.000788931
24.5004	0.000792746
25.0005	0.000801567
25.5004	0.000810627
26.0004	0.000813726
26.5004	0.000822548
27.0001	0.000825647
27.5004	0.000830892
28.0004	0.000836853
28.5004	0.000844482
29.0004	0.000854973
29.5004	0.000862602
30.0004	0.000868801
30.5004	0.000876669
31.0004	0.000883821
31.5004	0.000887636
32.0004	0.000904087
32.5004	0.000913862
33.0004	0.000922922
33.5004	0.000934843
34.0004	0.000939373
34.5004	0.000945572
35.0004	0.000957731
35.5004	0.000973705
36.0004	0.000989445
36.5004	0.00100971
37.0004	0.00102402
37.5004	0.00104309
38.0004	0.00105954
38.5004	0.00107837
39.0004	0.00109626
39.5004	0.00111771
40.0003	0.00114251
40.5003	0.00116921
41.0003	0.00120807
41.5003	0.00124336
42.0003	0.00126839
42.5003	0.00128413
43.0003	0.0012889
43.5003	0.00129557
44.0003	0.00130392
44.5003	0.00133062
45.0003	0.0013764
45.5003	0.00143123
46.0003	0.00149322
46.5003	0.0015452
47.0003	0.00158764
47.5003	0.00162388
48.0002	0.00167895
48.5003	0.00172616
49.0002	0.00178338
49.5003	0.00183869
50.0003	0.00190116
50.5	0.00195767
51	0.00204183
51.5003	0.00212385
52.0003	0.00221325
52.5002	0.00229384
53.0002	0.00237371
53.5002	0.00247909
54.0002	0.00259544
54.4984	0.00271226
55.0002	0.00284578
55.4982	0.00296022
56.0002	0.0030861
56.5002	0.00324823
57.0002	0.00340272
57.5002	0.00360109
58.0002	0.00376321
58.5002	0.00395396
59.0002	0.00413707
59.5002	0.00436977
60.0002	0.00465968
60.5002	0.00496295
61.0002	0.00525859
61.5002	0.00561908
62.0002	0.00592235
62.5002	0.00624087
63.0002	0.00654987
63.5002	0.00690654
64.0002	0.00740626
64.5002	0.00788313
65.0001	0.00837332
65.5001	0.00874335
66.0001	0.00918013
66.5001	0.00974089
67.0001	0.0104161
67.5001	0.0111676
68.0001	0.0119992
68.4998	0.0127068
69.0001	0.0134259
69.5001	0.0142918
69.9992	0.0149594
70.499	0.0159761
70.9984	0.0168496
71.4991	0.0178128
71.9988	0.0191976
72.5001	0.0207254
73.0001	0.021639
73.5001	0.0227987
74.0001	0.0234796
74.5001	0.0241491
75.0001	0.0247804
75.5001	0.0255357
76.0001	0.025757
76.5001	0.0261098
77.0001	0.0264951
77.5	0.0265123
78	0.0264589
78.5	0.0260946
79	0.0257741
79.5	0.0254861
80	0.0250379
80.5	0.0245725
81	0.0235177
81.5	0.0228025
82	0.0222093
82.5	0.0216142
83	0.0208665
83.5	0.0202066
84	0.0192739
84.5	0.0183336
85	0.0172826
85	0.016327
