Photodiode Viewing Angle (Degrees) - Plot 0	Lock-in Signal Amplitude (V) - Plot 0
-18.9987	0.00056291
-18.7487	0.000563387
-18.4987	0.000554089
-18.2487	0.000545267
-17.9987	0.000537399
-17.7487	0.000532631
-17.4987	0.00052667
-17.2487	0.000518326
-16.9987	0.000513081
-16.7487	0.000508312
-16.4987	0.000500921
-16.2487	0.000502113
-15.9987	0.000499967
-15.7487	0.000499729
-15.4987	0.00049806
-15.2487	0.00049353
-14.9987	0.000491623
-14.7487	0.000486853
-14.4987	0.000484707
-14.2487	0.000482799
-13.9987	0.000473263
-13.7487	0.00047827
-13.4987	0.00047517
-13.2487	0.000472309
-12.9987	0.000472786
-12.7499	0.00047064
-12.4987	0.000468733
-12.2487	0.000472786
-11.9987	0.000472309
-11.7487	0.000471594
-11.4987	0.000468256
-11.2487	0.000465157
-10.9987	0.000462057
-10.7487	0.000458481
-10.4987	0.000459434
-10.2487	0.000458242
-9.99876	0.000457289
-9.74875	0.000454905
-9.49876	0.000456335
-9.24876	0.000457289
-8.99876	0.000456097
-8.74876	0.000456335
-8.49876	0.00045562
-8.24878	0.000453951
-7.99876	0.000454428
-7.74878	0.000457766
-7.49878	0.000456812
-7.24878	0.00045562
-6.99878	0.000456573
-6.74878	0.000454428
-6.49878	0.00045252
-6.24878	0.000452282
-5.99879	0.000447752
-5.74878	0.000448229
-5.49879	0.000447037
-5.24879	0.000445606
-4.99879	0.000446321
-4.74879	0.000445606
-4.49879	0.000444653
-4.24879	0.000446798
-3.99879	0.000445606
-3.74881	0.000446083
-3.49881	0.00045109
-3.24881	0.000450375
-2.99881	0.000447514
-2.74881	0.000450851
-2.49881	0.000448467
-2.24881	0.000450613
-1.99883	0.000450136
-1.74883	0.000446321
-1.49883	0.000447514
-1.24883	0.000443937
-0.998825	0.000443222
-0.748825	0.00044203
-0.498825	0.000442984
-0.248825	0.000444891
0.000976562	0.000447037
0.25116	0.00044203
0.50116	0.000444653
0.751099	0.000445845
1.00108	0.000443699
1.25116	0.000449421
1.50079	0.000449182
1.75113	0.000449421
2.00116	0.000447514
2.25114	0.00044656
2.50114	0.000441553
2.75114	0.00044656
3.00114	0.000441791
3.25114	0.000441791
3.50114	0.000440599
3.75114	0.000441076
4.00113	0.000442268
4.25082	0.000440599
4.50052	0.000445368
4.75043	0.000447037
5.00113	0.000448467
5.25113	0.000444414
5.50113	0.000446083
5.75111	0.000447037
6.00113	0.000441791
6.25111	0.00044346
6.50111	0.000440123
6.75111	0.000443699
7.00111	0.000441076
7.25111	0.000440123
7.50111	0.000443937
7.75111	0.000447275
8.0011	0.000446321
8.25111	0.000450613
8.5011	0.000451805
8.7511	0.000451805
9.00108	0.000450375
9.2511	0.000450136
9.50067	0.000449421
9.75064	0.000447514
10.0004	0.000443699
10.2501	0.000443699
10.5004	0.000441791
10.7511	0.000445129
11.0011	0.000448229
11.2511	0.000452759
11.5011	0.000452997
11.7511	0.000454428
12.0011	0.000453236
12.2511	0.000449421
12.5011	0.000448944
12.7511	0.000449421
13.0011	0.000444653
13.2511	0.000447514
13.5011	0.00044656
13.7511	0.000448944
14.0011	0.000453236
14.2511	0.000449659
14.5011	0.000452282
14.7511	0.000452282
15.0011	0.000459673
15.2511	0.000457527
15.501	0.000458481
15.7511	0.000460388
16.001	0.000461103
16.251	0.000459434
16.501	0.000461103
16.751	0.000456097
17.001	0.000456097
17.251	0.000456335
17.501	0.000454428
17.751	0.000453951
18.001	0.000457766
18.251	0.000461342
18.501	0.000463964
18.751	0.000462772
19.001	0.000464918
19.251	0.000466587
19.501	0.000470402
19.751	0.000466587
20.001	0.000467541
20.251	0.000463964
20.501	0.000462057
20.751	0.000463726
21.001	0.000468971
21.251	0.000467541
21.501	0.000474932
21.751	0.000472786
22.001	0.00047517
22.251	0.000474455
22.501	0.000481846
22.751	0.000477793
23.001	0.000484707
23.251	0.000485899
23.501	0.000492338
23.751	0.000486614
24.001	0.000489
24.251	0.000484945
24.501	0.000482084
24.751	0.000483753
25.001	0.000476601
25.251	0.000471117
25.501	0.000466349
25.751	0.000466349
26.001	0.000463726
26.251	0.000468256
26.501	0.000468494
26.751	0.000471832
27.001	0.000472786
27.251	0.000476839
27.5009	0.000478508
27.751	0.000473263
28.0009	0.000468494
28.251	0.000470402
28.5009	0.000474932
28.7509	0.000472786
29.0009	0.000474455
29.2509	0.000470402
29.5009	0.000459196
29.7509	0.000453474
30.0009	0.000449898
30.2509	0.000446798
30.5009	0.000445129
30.7509	0.000447752
31.0009	0.000450136
31.2509	0.000444653
31.5009	0.000442745
31.7509	0.000437262
32.0009	0.000440599
32.2509	0.000438215
32.5009	0.000436069
32.7509	0.000436308
33.0009	0.000436546
33.2509	0.000432255
33.5009	0.000431301
33.7509	0.000426294
34.0009	0.000418903
34.2509	0.000416281
34.5009	0.000408174
34.7509	0.000412228
35.0009	0.00040579
35.2509	0.000408174
35.5009	0.000404598
35.7509	0.000402214
36.0009	0.000406029
36.2509	0.000406744
36.5009	0.000400783
36.7509	0.000400783
37.0009	0.000399353
37.2509	0.000397207
37.5009	0.00039077
37.7509	0.000384333
38.0009	0.000376465
38.2509	0.000372889
38.5009	0.000374319
38.7509	0.000369312
39.0009	0.000373127
39.2509	0.000368835
39.5009	0.000368597
39.7509	0.000368835
40.0009	0.000366451
40.2509	0.000363113
40.5008	0.000358107
40.7509	0.00035453
41.0008	0.000347855
41.2508	0.000344517
41.5008	0.000342848
41.7508	0.00034094
42.0008	0.000338795
42.2508	0.000338795
42.5008	0.000337603
42.7508	0.000337364
43.0008	0.00033498
43.2508	0.000333788
43.5006	0.000329258
43.7508	0.000326158
44.0008	0.000323297
44.2508	0.000322582
44.5008	0.000320436
44.7508	0.000317099
45.0008	0.000313284
45.2508	0.000312092
45.5008	0.000307562
45.7508	0.000304224
46.0008	0.000306131
46.2508	0.000304939
46.5008	0.000302317
46.7508	0.000300886
47.0008	0.000295641
47.2508	0.000290634
47.5008	0.000291349
47.7508	0.000283005
48.0008	0.000280859
48.2508	0.000280144
48.5008	0.000282766
48.7508	0.000283958
49.0008	0.000283243
49.2508	0.000282528
49.5008	0.000281097
49.7508	0.000277283
50.0008	0.000275614
50.2508	0.000274422
50.5008	0.000270369
50.7508	0.0002687
51.0008	0.000261785
51.2508	0.000259163
51.5008	0.000256779
51.7508	0.00025058
52.0008	0.000249626
52.2508	0.000247957
52.5008	0.000251772
52.7507	0.000245811
53.0007	0.000243188
53.2508	0.000239373
53.5007	0.000242711
53.7508	0.000237466
54.0007	0.000240088
54.2507	0.000236035
54.5007	0.000241519
54.7507	0.000240088
55.0007	0.000235558
55.2507	0.000232936
55.5007	0.000231982
55.7507	0.00022936
56.0007	0.000233651
56.2507	0.000227214
56.5007	0.000226975
56.7507	0.000223161
57.0007	0.000215293
57.2504	0.000217439
57.5007	0.000214816
57.7507	0.000217439
58.0007	0.000214816
58.2507	0.000217677
58.5007	0.000216008
58.7507	0.00021577
59.0007	0.000208617
59.2507	0.00020814
59.5007	0.000199319
59.7507	0.000200273
60.0007	0.000199319
60.2507	0.000205279
60.5007	0.000203372
60.7507	0.000200273
61.0007	0.000195266
61.2507	0.00019455
61.5007	0.000189305
61.7507	0.000185967
62.0007	0.000179292
62.2507	0.000179292
62.5007	0.000177146
62.7507	0.000174762
63.0007	0.000169278
63.2507	0.000172139
63.5007	0.000171424
63.7507	0.000173093
64.0007	0.000171901
64.2507	0.000168801
64.5007	0.000167132
64.7507	0.00016594
65.0007	0.000162126
65.2507	0.000158788
65.5007	0.000154258
65.7507	0.000151158
66.0006	0.000149966
66.2506	0.000148774
66.5006	0.00014639
66.7506	0.000147105
67.0006	0.000142814
67.2506	0.000139953
67.5006	0.000136853
67.7506	0.000139476
68.0006	0.000134231
68.2493	0.000131131
68.4988	0.000128985
68.7491	0.000129701
69.0006	0.000125648
69.2506	0.000126601
69.5006	0.00012684
69.7506	0.000123979
70.0006	0.000120402
70.2506	0.000116826
70.5006	0.000116826
70.7506	0.000112296
71.0006	0.000117302
71.2506	0.000116826
71.5006	0.000115157
71.7506	0.000109435
72.0006	0.000105381
72.2506	9.85E-05
72.4998	9.68E-05
72.7506	9.80E-05
73.0006	9.16E-05
73.2506	9.94E-05
73.5006	9.89E-05
73.7506	9.82E-05
74.0006	9.63E-05
74.2506	8.89E-05
74.5006	8.85E-05
74.7506	8.61E-05
75.0006	8.61E-05
75.2506	8.30E-05
75.5006	7.96E-05
75.7506	7.68E-05
76.0006	7.18E-05
76.2506	6.91E-05
76.5006	6.79E-05
76.7506	7.01E-05
77.0006	6.91E-05
77.2506	6.82E-05
77.5006	6.29E-05
77.7506	6.06E-05
78.0006	5.53E-05
78.2506	5.89E-05
78.5006	5.70E-05
78.7506	5.41E-05
79.0005	5.29E-05
79.2505	4.91E-05
79.5005	4.65E-05
79.7505	4.63E-05
80.0005	4.39E-05
80.2505	3.96E-05
80.5005	3.70E-05
80.7505	3.58E-05
81.0005	3.70E-05
81.2505	3.58E-05
81.5005	3.53E-05
81.7505	3.29E-05
82.0005	3.36E-05
82.2505	2.91E-05
82.5005	2.65E-05
82.7505	2.96E-05
83.0005	2.84E-05
83.2505	2.60E-05
83.5005	2.31E-05
83.7505	1.93E-05
84.0005	1.84E-05
84.2505	1.74E-05
84.5005	1.76E-05
84.7505	1.34E-05
85.0005	1.81E-05
85.2505	1.76E-05
85.5001	1.79E-05
85.7497	1.84E-05
86.0005	1.81E-05
86.2505	1.84E-05
86.5005	1.81E-05
86.7505	1.67E-05
87.0005	1.48E-05
87.2505	1.84E-05
87.5005	1.93E-05
87.7505	1.76E-05
88.0005	2.22E-05
88.2505	1.60E-05
88.5005	1.74E-05
88.7505	1.93E-05
89.0005	1.74E-05
89.2505	1.79E-05
89.4999	1.76E-05
89.7501	1.45E-05
90.0005	1.55E-05
90.2505	1.57E-05
90.5005	1.62E-05
90.7505	1.55E-05
91.0005	1.48E-05
91.2505	1.69E-05
91.5005	1.38E-05
91.7505	1.60E-05
92.0005	1.55E-05
92.2505	1.55E-05
92.5005	1.60E-05
92.7504	1.62E-05
93.0004	1.55E-05
93.2504	1.50E-05
93.5004	1.29E-05
93.7504	1.26E-05
94.0004	1.36E-05
94.2504	1.31E-05
94.5004	1.26E-05
94.7504	1.38E-05
95.0004	1.34E-05
95.2504	1.12E-05
95.5004	1.38E-05
95.7504	1.14E-05
96.0004	9.30E-06
96.2504	1.12E-05
96.5004	1.41E-05
96.7504	1.10E-05
97.0004	1.05E-05
97.2504	1.07E-05
97.5004	8.11E-06
97.7504	9.78E-06
98.0003	1.14E-05
98.2504	1.26E-05
98.5004	1.07E-05
98.7504	1.05E-05
99.0004	1.31E-05
99.2504	1.05E-05
99.5004	1.03E-05
99.7504	1.14E-05
100	1.10E-05
100.25	1.19E-05
100.5	1.14E-05
100.75	1.29E-05
101	1.22E-05
101.25	9.78E-06
101.5	1.07E-05
101.75	1.05E-05
102	1.50E-05
102.25	1.07E-05
102.5	8.11E-06
102.75	1.12E-05
103	1.00E-05
103.25	9.30E-06
103.5	7.63E-06
103.75	9.30E-06
104	9.30E-06
104.25	8.11E-06
104.5	1.07E-05
104.75	7.63E-06
105	8.58E-06
105.25	8.34E-06
105.5	6.91E-06
105.75	7.39E-06
106	1.24E-05
106.25	8.34E-06
106.5	1.14E-05
106.75	9.78E-06
107	1.31E-05
107.25	1.14E-05
107.5	1.26E-05
107.75	1.24E-05
108	1.43E-05
108.25	1.62E-05
108.5	1.43E-05
108.75	1.38E-05
109	1.24E-05
109.25	1.67E-05
109.5	1.62E-05
109.749	1.69E-05
110	1.79E-05
110.25	1.76E-05
110.5	1.79E-05
110.75	2.10E-05
111	2.03E-05
111.25	1.76E-05
111.5	2.00E-05
111.75	2.10E-05
112	2.07E-05
112.25	1.60E-05
112.5	2.12E-05
112.75	2.26E-05
113	2.36E-05
113.25	2.50E-05
113.5	2.41E-05
113.75	2.48E-05
114	2.48E-05
114.25	2.72E-05
114.5	2.98E-05
114.75	2.81E-05
115	2.53E-05
115.25	2.57E-05
115.5	2.88E-05
115.75	2.72E-05
116	2.81E-05
116.25	2.67E-05
116.5	2.81E-05
116.75	3.22E-05
117	3.05E-05
117.25	3.48E-05
117.5	3.22E-05
117.75	3.15E-05
118	2.98E-05
118.25	2.93E-05
118.5	3.55E-05
118.75	3.36E-05
119	3.79E-05
119.25	3.91E-05
119.5	3.79E-05
119.75	3.98E-05
120	3.91E-05
120.25	3.34E-05
120.5	3.41E-05
120.75	3.00E-05
121	2.31E-05
121.25	2.19E-05
121.5	2.00E-05
121.75	2.00E-05
122	1.31E-05
122.25	1.81E-05
122.5	2.15E-05
122.75	1.67E-05
123	1.93E-05
123.25	1.86E-05
123.5	2.00E-05
123.75	1.60E-05
124	2.05E-05
124.25	1.86E-05
124.5	1.86E-05
124.75	1.79E-05
125	1.76E-05
125.25	1.76E-05
125.5	1.81E-05
125.75	2.17E-05
126	2.17E-05
126.25	1.76E-05
126.5	1.86E-05
126.75	1.98E-05
127	1.93E-05
127.25	2.19E-05
127.5	1.98E-05
127.75	2.41E-05
128	2.50E-05
128.25	2.48E-05
128.5	2.48E-05
128.75	2.74E-05
129	2.93E-05
129.25	3.15E-05
129.5	2.98E-05
129.75	2.72E-05
130	2.67E-05
130.25	2.96E-05
130.5	2.81E-05
130.75	3.03E-05
131	3.08E-05
131.25	3.31E-05
131.5	3.12E-05
131.75	3.48E-05
132	3.03E-05
132.25	3.12E-05
132.499	3.24E-05
132.749	2.72E-05
133	3.00E-05
133.25	2.86E-05
133.5	3.03E-05
133.75	2.69E-05
134	2.60E-05
134.25	2.53E-05
134.5	2.50E-05
134.75	3.03E-05
135	2.65E-05
135.25	3.03E-05
135.5	3.15E-05
135.75	4.24E-05
136	5.08E-05
136.25	4.65E-05
136.5	3.43E-05
136.75	2.46E-05
137	2.26E-05
137.25	1.98E-05
137.5	2.05E-05
137.75	1.81E-05
138	2.00E-05
138.25	2.26E-05
138.5	1.74E-05
138.75	2.17E-05
139	2.10E-05
139.25	1.79E-05
139.5	2.10E-05
139.75	1.91E-05
140	2.22E-05
140.25	2.12E-05
140.5	2.31E-05
140.75	1.76E-05
141	1.98E-05
141.25	2.10E-05
141.5	2.17E-05
141.75	2.07E-05
141.998	2.00E-05
142.25	2.07E-05
142.5	2.12E-05
142.75	2.07E-05
143	2.03E-05
143.25	2.05E-05
143.5	2.07E-05
143.75	2.03E-05
144	1.98E-05
144.25	1.98E-05
144.5	2.17E-05
144.75	2.19E-05
145	1.98E-05
145.25	2.50E-05
145.5	1.93E-05
145.75	2.15E-05
146	2.17E-05
146.25	2.26E-05
146.5	2.24E-05
146.75	2.12E-05
147	2.05E-05
147.25	2.00E-05
147.5	2.31E-05
147.75	2.05E-05
148	2.34E-05
148.25	2.05E-05
148.5	1.86E-05
148.75	1.88E-05
149	2.19E-05
149.25	2.29E-05
149.5	2.19E-05
149.75	2.10E-05
150	2.26E-05
150	2.60E-05
-33.9987	0.000508312
-33.7487	0.000503305
-33.4991	0.000496391
-33.2494	0.000483992
-32.9992	0.000478508
-32.7487	0.000478746
-32.4987	0.00047064
-32.2487	0.00046468
-31.9987	0.00045562
-31.7487	0.000452282
-31.4987	0.00045109
-31.2487	0.000449182
-30.9987	0.00044799
-30.7487	0.000443699
-30.4987	0.000442745
-30.2487	0.000442745
-29.9987	0.000440599
-29.7487	0.000436069
-29.4987	0.00043297
-29.2487	0.000431778
-28.9987	0.000431301
-28.7487	0.000427963
-28.4987	0.00042701
-28.2487	0.000428202
-27.9987	0.000425817
-27.7487	0.00042701
-27.4987	0.000426294
-27.2487	0.000430109
-26.9987	0.000426771
-26.7487	0.000425579
-26.4987	0.000424864
-26.2487	0.000421287
-25.9987	0.000418903
-25.7487	0.000417234
-25.4987	0.00041795
-25.2487	0.000418188
-24.9988	0.000418426
-24.7487	0.000420334
-24.4988	0.000417234
-24.2488	0.000419857
-23.9988	0.000414373
-23.7488	0.00041795
-23.4988	0.00041938
-23.2488	0.000418188
-22.9988	0.000419619
-22.7488	0.000421049
-22.4988	0.000422003
-22.2488	0.000419857
-21.9988	0.000420334
-21.7488	0.000419619
-21.4988	0.000420095
-21.2488	0.000416281
-20.9988	0.000415089
-20.7488	0.00041485
-20.4988	0.000416519
-20.2488	0.000414612
-19.9988	0.000415327
-19.7488	0.000412943
-19.4988	0.000413897
-19.2488	0.000414135
-18.9988	0.000417473
-18.7488	0.000417711
-18.4988	0.000417234
-18.2488	0.000416758
-17.9988	0.000420572
-17.7488	0.000421049
-17.4988	0.000420572
-17.2488	0.00041795
-17.0003	0.000418188
-16.7488	0.000415804
-16.4988	0.000414612
-16.2488	0.000413658
-15.9988	0.000414373
-15.7488	0.000415804
-15.4988	0.00041485
-15.2488	0.000416758
-14.9988	0.000417711
-14.7488	0.000414135
-14.4988	0.000418903
-14.2488	0.000420811
-13.9988	0.000417711
-13.7488	0.00041938
-13.4988	0.00042391
-13.2488	0.000416042
-12.9988	0.000420572
-12.7489	0.000416758
-12.4989	0.00041795
-12.2489	0.000418188
-11.9989	0.000414135
-11.7489	0.000416281
-11.4989	0.000416996
-11.2489	0.000415089
-10.9989	0.000415804
-10.7489	0.000419619
-10.4989	0.000422956
-10.2489	0.000420572
-9.99887	0.00042391
-9.74887	0.000420095
-9.49887	0.000422241
-9.24889	0.000421764
-8.99887	0.000422241
-8.74889	0.000420572
-8.49898	0.000418665
-8.24889	0.000417473
-7.99889	0.000424625
-7.74889	0.000418188
-7.49889	0.000421764
-7.24889	0.000424625
-6.9989	0.000424864
-6.74889	0.000426294
-6.4989	0.000429632
-6.2489	0.000429155
-5.9989	0.000427963
-5.7489	0.000427963
-5.4989	0.00042701
-5.24892	0.000424864
-4.9989	0.000423672
-4.74892	0.000423433
-4.49892	0.00042248
-4.24892	0.000422241
-3.99927	0.000426056
-3.74892	0.000427725
-3.49893	0.000426056
-3.24892	0.000424149
-2.99893	0.000425579
-2.74892	0.000424625
-2.49893	0.000422241
-2.24893	0.000418665
-1.99893	0.000423433
-1.74893	0.000419619
-1.49893	0.000423433
-1.24895	0.000424387
-0.998932	0.000423672
-0.748947	0.000425102
-0.498947	0.000427248
-0.248947	0.000428202
0.00105286	0.000427248
0.251053	0.000427248
0.501038	0.000428202
0.7509	0.000430347
1.00072	0.000426771
1.25053	0.00042391
1.50104	0.000422241
1.75029	0.00042391
2.00015	0.000420095
2.25015	0.00041795
2.49998	0.000418188
2.75017	0.000416996
2.99962	0.000421764
3.25102	0.00042248
3.50102	0.000423433
3.75102	0.000425579
4.00102	0.000424864
4.25102	0.000424625
4.50101	0.000425341
4.75102	0.000425579
5.00101	0.000422003
5.25101	0.000420811
5.50101	0.000421764
5.75101	0.000421764
6.00101	0.000419857
6.25099	0.000423195
6.50101	0.000424387
6.75099	0.000426294
7.001	0.000426056
7.25099	0.000424149
7.501	0.000426294
7.75099	0.000426294
8.00098	0.000431539
8.25098	0.000428917
8.50098	0.000429632
8.75098	0.000426056
9.00098	0.000425579
9.25098	0.000425102
9.50098	0.000421049
9.75098	0.000419619
10.001	0.000415089
10.251	0.000415565
10.501	0.000414612
10.751	0.000410559
11.001	0.000415327
11.251	0.000415327
11.501	0.000416758
11.751	0.000419619
12.0002	0.000417473
12.251	0.000420811
12.5009	0.000420811
12.751	0.000421287
13.0009	0.000420095
13.251	0.000418903
13.5009	0.000421049
13.7509	0.000421764
14.0009	0.000418665
14.2509	0.00041342
14.5009	0.00041032
14.7509	0.000413181
15.0009	0.000414135
15.2509	0.00041342
15.5007	0.000411751
15.7509	0.000410082
16.0009	0.000415804
16.2509	0.000409128
16.5009	0.000414135
16.7509	0.000413658
17.0009	0.000413897
17.2509	0.00041342
17.5009	0.000415804
17.7509	0.00041342
18.0009	0.000413181
18.2509	0.000413658
18.5009	0.000414612
18.7509	0.000407459
19.0009	0.000407459
19.2509	0.000407936
19.5009	0.000407459
19.7507	0.000404121
20.0007	0.000406744
20.2509	0.000412228
20.5009	0.000410797
20.7509	0.000413897
21.0009	0.000410082
21.2509	0.000415804
21.5009	0.000411274
21.7509	0.000415804
22.0009	0.000411274
22.2509	0.000405075
22.5009	0.000405075
22.7509	0.000405075
23.0009	0.00040126
23.2509	0.000404121
23.5009	0.000402452
23.7509	0.000406267
24.0009	0.00040579
24.2509	0.00040579
24.5009	0.000408413
24.7509	0.000406744
25.0009	0.000407936
25.2509	0.000404121
25.5008	0.000406506
25.7509	0.000403168
26.0008	0.000400068
26.2508	0.000402214
26.5008	0.000400545
26.7508	0.000399591
27.0008	0.000399115
27.2508	0.000397922
27.5008	0.000400783
27.7508	0.000399591
28.0008	0.00040126
28.2508	0.000403168
28.5008	0.000402452
28.7508	0.000399353
29.0008	0.000400307
29.2508	0.000397922
29.5008	0.000398638
29.7508	0.0003953
30.0008	0.000395777
30.2508	0.00039673
30.5008	0.000394346
30.7508	0.000395777
31.0008	0.000394585
31.2508	0.000396015
31.5008	0.000392677
31.7508	0.000395538
32.0008	0.000394346
32.2508	0.000386478
32.5008	0.000384333
32.7508	0.000382187
33.0008	0.000382902
33.2508	0.000385525
33.5008	0.000385286
33.7508	0.000388147
34.0008	0.000390055
34.2508	0.000391962
34.5008	0.000391962
34.7508	0.00039077
35.0008	0.000390531
35.2508	0.000388624
35.5008	0.000386955
35.7508	0.000388386
36.0008	0.000374796
36.2508	0.00037575
36.5008	0.000376465
36.7508	0.000373127
37.0008	0.000374796
37.2508	0.000371935
37.5008	0.000370981
37.7508	0.00036812
38.0008	0.000362637
38.2508	0.000365974
38.5007	0.000366213
38.7508	0.000364305
39.0007	0.000366213
39.2507	0.000368835
39.5007	0.00036669
39.7507	0.000371935
40.0007	0.000370743
40.2507	0.000367405
40.5007	0.00036812
40.7507	0.000369074
41.0007	0.000365021
41.2507	0.000360729
41.5007	0.000357391
41.7507	0.000355961
42.0007	0.000352861
42.2507	0.000350716
42.5007	0.0003531
42.7507	0.000353815
43.0007	0.000354769
43.2507	0.000355246
43.5007	0.000352623
43.7507	0.000349285
44.0007	0.000342371
44.2507	0.000339033
44.5007	0.000333311
44.7507	0.000332596
45.0007	0.000329258
45.2507	0.000333311
45.5007	0.000333311
45.7507	0.000330927
46.0007	0.000328066
46.2507	0.000318768
46.5007	0.000316145
46.7507	0.000308277
47.0007	0.000302793
47.2507	0.000300648
47.5007	0.000299456
47.7507	0.000301125
48.0007	0.000297787
48.2507	0.000294926
48.5007	0.000297548
48.7507	0.000294449
49.0007	0.000297071
49.2507	0.00028968
49.5007	0.000291826
49.7507	0.000283958
50.0007	0.000283958
50.2507	0.000276329
50.5007	0.000272991
50.7504	0.00027013
51.0006	0.000267984
51.2506	0.000267269
51.5006	0.000265123
51.7506	0.00026107
52.0006	0.000262978
52.2506	0.000259878
52.5006	0.000261309
52.7506	0.000255587
53.0006	0.000254633
53.2506	0.000249149
53.5006	0.000250103
53.7506	0.000252249
54.0006	0.000247242
54.2506	0.000244858
54.5006	0.00024748
54.7506	0.00024605
55.0006	0.000243903
55.2506	0.000244619
55.5006	0.000239135
55.7506	0.000237466
56.0006	0.000237466
56.2506	0.000235797
56.5006	0.000232936
56.7506	0.000223399
57.0006	0.000218869
57.2506	0.000219346
57.5006	0.000213147
57.7506	0.000214816
58.0006	0.000216962
58.2506	0.000219584
58.5006	0.0002172
58.7506	0.000214101
59.0006	0.000211955
59.2506	0.000209809
59.5006	0.00020814
59.7506	0.000208617
60.0006	0.000205995
60.2506	0.00019455
60.5006	0.000191451
60.7506	0.000187875
61.0006	0.000190021
61.2506	0.000190259
61.5006	0.000191451
61.7506	0.000189305
62.0006	0.000188828
62.2506	0.000184775
62.5006	0.000180484
62.7506	0.000180007
63.0006	0.000179769
63.2506	0.000180722
63.5006	0.000177384
63.7506	0.000180245
64.0005	0.000169993
64.2505	0.000170232
64.5005	0.000164748
64.7505	0.000162841
65.0005	0.00015998
65.2505	0.000154973
65.4995	0.000153066
65.7497	0.000156165
65.9996	0.000151874
66.2505	0.000156642
66.5005	0.000155211
66.7505	0.000151635
67.0005	0.000149728
67.2505	0.000144244
67.5005	0.000144721
67.7505	0.000148536
68.0005	0.00014329
68.2505	0.000136853
68.5005	0.0001328
68.7505	0.00013137
69.0005	0.000124455
69.2505	0.000123979
69.5005	0.000127555
69.7505	0.000126124
70.0005	0.000122548
70.2505	0.000128747
70.5005	0.000123979
70.7505	0.00012231
71.0005	0.000118733
71.2505	0.000116826
71.5005	0.000114441
71.7505	0.000113011
72.0005	0.000109196
72.2505	0.00010705
72.5005	0.000106335
72.7505	0.00010252
73.0005	0.000100613
73.2505	9.75E-05
73.5005	9.82E-05
73.7505	9.85E-05
74.0005	9.89E-05
74.2505	9.85E-05
74.5005	9.61E-05
74.7505	9.49E-05
75.0005	8.58E-05
75.2505	8.39E-05
75.5005	8.18E-05
75.7505	8.25E-05
76.0005	7.70E-05
76.2505	7.27E-05
76.5005	7.34E-05
76.7504	7.53E-05
77.0005	7.80E-05
77.2505	7.51E-05
77.5005	7.18E-05
77.7504	6.41E-05
78.0004	6.68E-05
78.2504	6.29E-05
78.5004	6.18E-05
78.7504	6.46E-05
79.0004	6.25E-05
79.25	5.41E-05
79.4999	5.32E-05
79.7502	5.08E-05
80	5.08E-05
80.2504	4.74E-05
80.5004	4.94E-05
80.7504	5.03E-05
81.0004	4.79E-05
81.2504	4.67E-05
81.5004	4.32E-05
81.7504	3.81E-05
82.0004	3.48E-05
82.2504	3.77E-05
82.5004	3.70E-05
82.7504	3.43E-05
83.0004	3.03E-05
83.2504	2.69E-05
83.5004	2.69E-05
83.7504	2.43E-05
84.0004	2.29E-05
84.2504	1.53E-05
84.4992	9.30E-06
84.7504	9.78E-06
85.0004	9.78E-06
85.2504	9.78E-06
85.5004	1.07E-05
85.7504	1.14E-05
86.0004	1.12E-05
86.2504	1.03E-05
86.5004	9.78E-06
86.7504	1.05E-05
87.0004	1.07E-05
87.2504	8.58E-06
87.5004	9.78E-06
87.7504	8.58E-06
88.0004	6.44E-06
88.2504	7.87E-06
88.5004	4.29E-06
88.7504	6.44E-06
89.0004	6.44E-06
89.2504	7.63E-06
89.5004	4.29E-06
89.7504	5.25E-06
89.9995	8.11E-06
90.2503	6.20E-06
90.5003	7.63E-06
90.7503	7.87E-06
91.0003	6.68E-06
91.2503	8.82E-06
91.5003	8.11E-06
91.7503	7.63E-06
92.0003	8.11E-06
92.2503	8.82E-06
92.5003	7.63E-06
92.7503	7.15E-06
93.0003	7.63E-06
93.2503	1.00E-05
93.5003	1.10E-05
93.7503	8.11E-06
94.0003	8.58E-06
94.2503	6.91E-06
94.499	8.34E-06
94.749	1.12E-05
95.0003	9.06E-06
95.2503	1.10E-05
95.5003	1.05E-05
95.7503	1.22E-05
96.0003	1.55E-05
96.2503	9.54E-06
96.5003	1.14E-05
96.7503	1.14E-05
97.0003	1.43E-05
97.2503	1.38E-05
97.5003	1.48E-05
97.7503	1.62E-05
98.0003	1.93E-05
98.2503	1.45E-05
98.5003	1.38E-05
98.7503	1.53E-05
99.0003	1.31E-05
99.2503	1.38E-05
99.5003	1.69E-05
99.7503	1.43E-05
100	1.62E-05
100.25	1.14E-05
100.5	1.43E-05
100.75	2.10E-05
101	1.86E-05
101.25	1.55E-05
101.5	1.81E-05
101.75	2.03E-05
102	1.69E-05
102.25	1.72E-05
102.5	1.91E-05
102.75	1.67E-05
103	1.98E-05
103.25	1.98E-05
103.5	1.86E-05
103.75	2.24E-05
104	2.31E-05
104.25	2.29E-05
104.5	2.31E-05
104.75	2.05E-05
105	2.19E-05
105.25	2.31E-05
105.5	2.19E-05
105.75	2.41E-05
106	2.34E-05
106.25	2.60E-05
106.5	2.10E-05
106.75	2.86E-05
107	2.93E-05
107.25	3.27E-05
107.5	2.91E-05
107.75	3.29E-05
108	3.65E-05
108.249	3.77E-05
108.5	3.98E-05
108.75	3.79E-05
109	4.15E-05
109.25	4.53E-05
109.5	4.08E-05
109.75	4.84E-05
110	4.89E-05
110.25	5.13E-05
110.5	5.58E-05
110.75	5.82E-05
111	5.20E-05
111.25	5.13E-05
111.5	5.10E-05
111.75	4.86E-05
112	4.67E-05
112.25	3.60E-05
112.5	2.98E-05
112.75	2.12E-05
113	2.03E-05
113.25	1.65E-05
113.5	1.65E-05
113.75	2.15E-05
114	1.76E-05
114.25	2.22E-05
114.5	1.98E-05
114.75	2.00E-05
115	1.98E-05
115.25	1.91E-05
115.5	1.98E-05
115.75	2.00E-05
116	2.22E-05
116.25	2.29E-05
116.5	2.43E-05
116.75	1.86E-05
117	2.36E-05
117.25	2.36E-05
117.5	2.36E-05
117.75	2.03E-05
118	2.00E-05
118.25	2.24E-05
118.5	2.29E-05
118.75	2.15E-05
119	2.26E-05
119.25	2.26E-05
119.5	2.03E-05
119.75	1.98E-05
120	2.22E-05
120.25	2.26E-05
120.5	2.74E-05
120.75	3.91E-05
121	4.39E-05
121.25	4.70E-05
121.5	4.82E-05
121.75	4.15E-05
122	5.22E-05
122.25	5.96E-05
122.5	5.84E-05
122.75	6.08E-05
123	5.17E-05
123.25	5.17E-05
123.5	4.82E-05
123.75	5.01E-05
124	4.48E-05
124.25	3.27E-05
124.5	2.55E-05
124.75	1.48E-05
125	1.43E-05
125.25	1.69E-05
125.5	1.55E-05
125.75	1.50E-05
126	1.50E-05
126.25	1.31E-05
126.5	9.30E-06
126.75	1.65E-05
127	1.43E-05
127.25	1.76E-05
127.5	1.38E-05
127.75	1.45E-05
128	1.65E-05
128.25	1.62E-05
128.5	2.03E-05
128.75	1.69E-05
129	1.65E-05
129.25	1.69E-05
129.5	1.55E-05
129.75	1.93E-05
130	1.96E-05
130.25	1.81E-05
130.5	1.88E-05
130.75	1.67E-05
131	1.86E-05
131.25	1.60E-05
131.5	1.79E-05
131.75	1.36E-05
132	1.76E-05
132.25	1.96E-05
132.5	1.65E-05
132.75	1.48E-05
133	1.57E-05
133.25	1.67E-05
133.5	1.50E-05
133.75	1.76E-05
134	1.96E-05
134.25	1.60E-05
134.5	1.65E-05
134.75	1.60E-05
135	1.43E-05
135	1.38E-05
-48.9987	0.000426771
-48.7487	0.000420095
-48.4993	0.000410559
-48.2487	0.000399591
-47.9987	0.000394585
-47.7487	0.000392677
-47.4987	0.000387909
-47.2487	0.000383379
-46.9987	0.000376465
-46.7487	0.000371696
-46.4987	0.000371458
-46.2487	0.000372889
-45.9987	0.00036812
-45.7487	0.000364305
-45.4987	0.000364782
-45.2487	0.000364782
-44.9987	0.000364544
-44.7487	0.00035906
-44.4987	0.000359299
-44.2487	0.000358583
-43.9987	0.000354769
-43.7487	0.000350716
-43.4987	0.000351908
-43.2487	0.00034857
-42.9987	0.000348093
-42.7487	0.000353815
-42.4991	0.000351669
-42.2487	0.000352385
-41.9987	0.000350716
-41.7487	0.00034857
-41.4987	0.000347616
-41.2487	0.000346424
-40.9987	0.00034547
-40.7487	0.000344278
-40.4987	0.00034547
-40.2487	0.000348093
-39.9988	0.00034857
-39.7487	0.000346186
-39.4988	0.00034857
-39.2488	0.000347139
-38.9988	0.00034857
-38.7488	0.000348808
-38.4988	0.000349762
-38.2488	0.000352861
-37.9988	0.000350239
-37.7488	0.000351192
-37.4993	0.000351431
-37.2501	0.000348808
-37	0.000351192
-36.7497	0.000350477
-36.5002	0.000350477
-36.2502	0.000349285
-36.001	0.000347616
-35.7488	0.000349762
-35.4988	0.000351431
-35.2488	0.000350954
-34.9988	0.000351192
-34.7488	0.000351908
-34.4988	0.000350716
-34.2488	0.0003531
-33.9988	0.000354292
-33.7488	0.000354292
-33.4988	0.000356199
-33.2488	0.000358822
-32.9988	0.000356438
-32.7488	0.000361683
-32.4988	0.000356914
-32.2501	0.000359537
-31.9988	0.000361683
-31.7488	0.000358822
-31.4988	0.000357153
-31.2488	0.000357153
-30.9988	0.000360491
-30.7488	0.000361444
-30.4988	0.000359775
-30.2488	0.000361683
-29.9988	0.000361444
-29.7488	0.000363829
-29.4988	0.000368597
-29.2488	0.000369074
-28.9988	0.000365259
-28.7488	0.000369074
-28.4988	0.00036669
-28.2488	0.000369789
-27.9988	0.000367643
-27.7489	0.000367643
-27.4989	0.00036812
-27.2489	0.00036359
-26.9989	0.000367882
-26.7489	0.000365498
-26.4989	0.000370981
-26.2489	0.000368597
-25.9989	0.000370266
-25.7489	0.000375034
-25.4989	0.000373604
-25.2489	0.000374557
-24.9989	0.000380279
-24.7489	0.000376942
-24.4989	0.000379326
-24.2492	0.000373842
-23.9992	0.000379326
-23.7489	0.000376942
-23.4989	0.000378611
-23.2489	0.000380279
-22.9989	0.000380756
-22.7489	0.000380756
-22.4989	0.000383379
-22.2489	0.000383617
-21.9989	0.000387432
-21.7489	0.000388624
-21.4989	0.00038624
-21.2489	0.000385286
-20.9989	0.000387432
-20.7489	0.000384809
-20.4989	0.000384809
-20.2489	0.00038624
-19.9989	0.000386717
-19.7489	0.000388863
-19.4989	0.000389101
-19.2489	0.000391247
-18.9994	0.000391962
-18.7491	0.000391962
-18.4989	0.000394585
-18.2489	0.000396254
-17.9989	0.000392916
-17.7489	0.000394108
-17.4989	0.000391962
-17.2489	0.0003922
-16.9989	0.0003922
-16.7489	0.000397207
-16.4989	0.0003953
-16.2489	0.000397922
-15.9989	0.000395777
-15.7489	0.000399115
-15.4989	0.000401022
-15.2489	0.000399353
-14.9989	0.000398399
-14.7489	0.000403406
-14.499	0.000402691
-14.2489	0.000404837
-13.999	0.00039983
-13.749	0.00040126
-13.499	0.000400068
-13.2497	0.000402929
-13	0.000399115
-12.7497	0.000403168
-12.499	0.000403168
-12.249	0.000402452
-11.999	0.000406267
-11.749	0.000403645
-11.499	0.000405075
-11.249	0.000407936
-10.999	0.00040579
-10.749	0.00040889
-10.499	0.000403406
-10.249	0.000406267
-9.99899	0.000408413
-9.74899	0.000403883
-9.49899	0.000406982
-9.24899	0.000406982
-8.99899	0.000403645
-8.74901	0.000409843
-8.49899	0.00041032
-8.24901	0.000409128
-7.999	0.000411512
-7.74901	0.000415565
-7.499	0.00041342
-7.24901	0.00041795
-6.99902	0.000416758
-6.74902	0.000412466
-6.49902	0.000413658
-6.24902	0.000412943
-5.99902	0.000415089
-5.74902	0.00041485
-5.49902	0.000414135
-5.24902	0.000407459
-4.99902	0.000411751
-4.74903	0.000412466
-4.49903	0.000409605
-4.24904	0.000411274
-3.99903	0.000412704
-3.74904	0.00041342
-3.49904	0.000416281
-3.24904	0.000413181
-2.99904	0.000413897
-2.74905	0.000415089
-2.49905	0.000417473
-2.24905	0.000416042
-1.99905	0.00041938
-1.74905	0.000416519
-1.49905	0.000415327
-1.24905	0.000415089
-0.999062	0.000410797
-0.749062	0.000414135
-0.499062	0.000416996
-0.249069	0.000415565
0.000938416	0.00041795
0.250931	0.000416281
0.5009	0.000414373
0.750916	0.000414135
1.0009	0.000413658
1.25077	0.000417711
1.50092	0.000419142
1.75092	0.000419142
2.00092	0.000418188
2.25092	0.000420095
2.50092	0.000417234
2.75092	0.000418903
3.00091	0.000415804
3.25092	0.000417711
3.50091	0.000417473
3.7509	0.000416758
4.00091	0.000416996
4.2509	0.000415327
4.5009	0.000413181
4.75089	0.00041795
5.0009	0.000418188
5.25089	0.000418665
5.50089	0.000423672
5.75089	0.000421764
6.00089	0.00042391
6.25089	0.000422003
6.50088	0.000416758
6.75089	0.000418426
7.00004	0.000421287
7.24967	0.000418426
7.50088	0.000420095
7.75087	0.00041342
8.00087	0.000417234
8.25087	0.000415565
8.50087	0.000419857
8.75086	0.000420095
9.00087	0.000418665
9.25086	0.000419619
9.50086	0.000422003
9.75086	0.000416758
10.0009	0.000417711
10.2509	0.000418903
10.5008	0.000414373
10.7509	0.000415089
11.0008	0.000413897
11.2508	0.000417711
11.5008	0.000413658
11.7508	0.000417473
12.0008	0.000418426
12.2508	0.000415089
12.5008	0.000412466
12.7508	0.000417473
13.0008	0.000418665
13.2508	0.000411274
13.5008	0.00041342
13.7508	0.000410082
14.0008	0.000413181
14.2508	0.000410559
14.5008	0.000409605
14.7505	0.00041032
15.0008	0.000409605
15.2508	0.000411274
15.5008	0.000409367
15.7508	0.000412466
16.0008	0.000408413
16.2508	0.000406267
16.5008	0.000407459
16.7508	0.000404121
17.0008	0.000405075
17.2508	0.000406029
17.5008	0.000404121
17.7508	0.000406744
18.0008	0.000403645
18.2508	0.000405552
18.5008	0.000407698
18.7508	0.000406744
19.0008	0.000407698
19.2508	0.000402452
19.5008	0.000407698
19.7508	0.000401976
20.0008	0.000403406
20.2508	0.000397446
20.5008	0.000391485
20.7508	0.000393869
21.0008	0.000389578
21.2508	0.000388624
21.5008	0.000391247
21.7508	0.000391008
22.0008	0.00038767
22.2508	0.000384809
22.5008	0.000389578
22.7508	0.000383617
23.0008	0.000382902
23.2508	0.000384809
23.5007	0.000389101
23.7508	0.000388386
24.0007	0.000388386
24.2507	0.000390055
24.5007	0.000389578
24.7507	0.000391247
25.0007	0.000389578
25.2507	0.00038767
25.5007	0.000382664
25.7507	0.000385286
26.0007	0.000386955
26.2507	0.000386478
26.5007	0.00038624
26.7507	0.000387194
27.0007	0.000385525
27.2507	0.000387909
27.5007	0.000389101
27.7507	0.000384094
28.0007	0.000382425
28.2507	0.000388624
28.5007	0.000382187
28.7507	0.000385286
29.0007	0.000381472
29.2507	0.000382425
29.5007	0.000381472
29.7507	0.000383379
30.0007	0.000376942
30.2507	0.000379803
30.5007	0.000373842
30.7507	0.000372889
31.0003	0.000370504
31.2507	0.000369074
31.5007	0.000369312
31.7507	0.00036812
32.0007	0.00036359
32.2507	0.000366928
32.5007	0.000365259
32.7507	0.000368359
33.0007	0.000366928
33.2507	0.00036216
33.5007	0.000361444
33.7507	0.000364782
34.0007	0.000361444
34.2507	0.000359299
34.5005	0.000360968
34.7507	0.000355484
35.0007	0.000356914
35.2507	0.000351431
35.5007	0.000352385
35.7507	0.000351192
36.0006	0.000346424
36.2506	0.000347139
36.5006	0.000347855
36.7506	0.000347139
37.0006	0.000347139
37.2506	0.000347616
37.5006	0.000344278
37.7506	0.000344278
38.0006	0.000341417
38.2506	0.000342609
38.5006	0.000341417
38.7506	0.000348093
39.0006	0.000341417
39.2504	0.000341894
39.5006	0.000346424
39.7506	0.000339748
40.0006	0.000342133
40.2506	0.000343563
40.5006	0.000338795
40.7506	0.000338079
41.0006	0.000332596
41.2506	0.000330212
41.5006	0.000328543
41.7506	0.000328066
42.0006	0.000325205
42.2506	0.00032449
42.5006	0.000326397
42.7506	0.000327351
43.0006	0.000323774
43.2506	0.000327351
43.5006	0.000325443
43.7506	0.000323536
44.0005	0.000323536
44.2506	0.000318291
44.5006	0.000316622
44.7506	0.000312807
45.0006	0.000313284
45.2506	0.000313761
45.5006	0.000312807
45.7506	0.000311138
46.0006	0.000310423
46.2506	0.000309946
46.5006	0.000307323
46.7506	0.000308277
47.0006	0.000307085
47.2506	0.00030637
47.5006	0.000309469
47.7506	0.000306847
48.0006	0.000302793
48.2506	0.00030184
48.5006	0.000298979
48.7506	0.000296356
49.0005	0.000296833
49.2505	0.000289442
49.5005	0.000289919
49.7505	0.000283482
50.0005	0.000281813
50.2493	0.000282766
50.5005	0.00028515
50.7505	0.000280859
51.0005	0.000282051
51.2505	0.000283005
51.5005	0.000280382
51.7505	0.000278952
52.0005	0.000279667
52.2505	0.00027776
52.5005	0.000275375
52.7505	0.000272991
53.0005	0.000265362
53.2505	0.000262739
53.5005	0.000263931
53.7505	0.00026107
54.0005	0.000265362
54.2505	0.000262739
54.5005	0.000264646
54.7505	0.000267031
55.0005	0.000264885
55.2505	0.000262262
55.5005	0.000263216
55.7505	0.00025964
56.0005	0.000260355
56.2505	0.000256779
56.5005	0.000257256
56.7505	0.000260117
57.0005	0.000260832
57.2505	0.000257017
57.5005	0.000252964
57.7505	0.000257494
58.0005	0.000260593
58.2505	0.00025964
58.5005	0.000262501
58.7505	0.000261309
59.0005	0.000261785
59.2505	0.000260355
59.5005	0.000256779
59.7505	0.000257971
60.0005	0.00025511
60.2505	0.000253441
60.5005	0.000250103
60.7505	0.00025201
61.0005	0.000254394
61.2504	0.00025511
61.5004	0.000259401
61.7505	0.000257971
62.0005	0.000254871
62.2505	0.000257017
62.5005	0.000251772
62.7504	0.000250103
63.0004	0.000254633
63.2504	0.000257732
63.5004	0.000260593
63.7504	0.000260355
64.0004	0.000252964
64.2504	0.000251295
64.5004	0.000245096
64.7504	0.000247957
65.0004	0.00024748
65.2504	0.00025201
65.5004	0.000254156
65.7504	0.000253441
66.0004	0.000254871
66.2504	0.00024748
66.5004	0.000242234
66.7504	0.000243903
67.0004	0.000245573
67.2504	0.000243903
67.5004	0.000244142
67.7504	0.000240804
68.0004	0.000236274
68.2499	0.000240327
68.4998	0.000242473
68.7504	0.000243903
69.0004	0.000246288
69.2504	0.00023842
69.5004	0.000235082
69.7504	0.000230075
70.0004	0.000233651
70.2504	0.000236035
70.5004	0.000233174
70.7504	0.000227929
71.0004	0.000224114
71.2504	0.000225068
71.5004	0.00022936
71.7504	0.000231744
72.0004	0.000225306
72.2504	0.000226499
72.4993	0.000221969
72.749	0.000216485
72.9988	0.000215054
73.2504	0.000216962
73.5004	0.00021577
73.7504	0.000209094
74.0004	0.00020361
74.2504	0.000204564
74.5004	0.000205041
74.7504	0.000206233
75.0004	0.000203372
75.2503	0.000197173
75.5003	0.000196458
75.7503	0.000195504
76.0003	0.000195981
76.2503	0.000190974
76.5002	0.000190974
76.7499	0.000186921
77.0003	0.000180245
77.2502	0.000184298
77.5003	0.000185729
77.7503	0.000176431
78.0003	0.000172616
78.2501	0.000167609
78.5003	0.000163318
78.7502	0.00015998
79.0002	0.000161172
79.2491	0.000161649
79.5003	0.00016594
79.7503	0.00015998
80.0003	0.000152112
80.2503	0.000143767
80.5003	0.000141622
80.7503	0.000140191
81.0003	0.000139476
81.2503	0.000137807
81.5003	0.000129939
81.7503	0.000125648
82.0003	0.000126601
82.2503	0.000123263
82.5003	0.00012684
82.7503	0.000127793
83.0003	0.000124694
83.2503	0.000117779
83.5003	0.000113726
83.7503	0.000116826
84.0003	0.000117302
84.2503	0.000108481
84.5003	0.00010109
84.7503	8.30E-05
85.0003	5.72E-05
85.2503	3.36E-05
85.5003	2.48E-05
85.7503	2.31E-05
86.0003	2.12E-05
86.2503	1.98E-05
86.5003	1.93E-05
86.7503	1.81E-05
87.0003	2.31E-05
87.2496	2.31E-05
87.4994	2.03E-05
87.7489	2.36E-05
88.0002	2.10E-05
88.2502	2.38E-05
88.5002	2.48E-05
88.7502	2.17E-05
89.0002	2.48E-05
89.2502	2.34E-05
89.5002	2.79E-05
89.7502	2.50E-05
90.0002	2.50E-05
90.2502	2.43E-05
90.5002	2.48E-05
90.7502	2.72E-05
91.0002	2.65E-05
91.2502	3.12E-05
91.5002	2.84E-05
91.7502	3.10E-05
92.0002	2.93E-05
92.2502	2.72E-05
92.5002	2.91E-05
92.7502	3.34E-05
93.0002	3.43E-05
93.2502	3.70E-05
93.5002	3.58E-05
93.7502	3.27E-05
94.0002	3.77E-05
94.2502	3.86E-05
94.5002	3.81E-05
94.7502	3.98E-05
95.0002	4.39E-05
95.2502	4.74E-05
95.5002	4.96E-05
95.7502	5.34E-05
96.0002	4.91E-05
96.2502	4.72E-05
96.5002	4.89E-05
96.7502	4.96E-05
97.0002	5.44E-05
97.2489	5.56E-05
97.5001	5.29E-05
97.7502	5.77E-05
98.0002	5.44E-05
98.2502	5.48E-05
98.5002	5.70E-05
98.7502	5.96E-05
99.0002	6.32E-05
99.2502	6.46E-05
99.5002	6.96E-05
99.7502	6.89E-05
100	7.22E-05
100.25	7.94E-05
100.5	7.80E-05
100.75	8.15E-05
101	8.73E-05
101.25	8.75E-05
101.5	8.96E-05
101.75	9.37E-05
102	9.63E-05
102.25	9.94E-05
102.5	9.82E-05
102.75	9.66E-05
103	9.97E-05
103.25	9.56E-05
103.5	9.85E-05
103.75	0.000102997
104	0.000100136
104.25	7.92E-05
104.5	5.29E-05
104.75	3.39E-05
105	2.00E-05
105.25	1.69E-05
105.5	1.79E-05
105.75	2.50E-05
106	3.41E-05
106.25	3.84E-05
106.5	3.27E-05
106.75	2.88E-05
107	3.58E-05
107.25	4.08E-05
107.5	4.48E-05
107.75	4.27E-05
108	4.08E-05
108.25	4.10E-05
108.5	4.34E-05
108.75	4.20E-05
108.999	3.48E-05
109.25	3.19E-05
109.5	2.91E-05
109.75	3.19E-05
110	3.77E-05
110.25	3.39E-05
110.5	3.89E-05
110.75	4.46E-05
111	4.58E-05
111.25	4.48E-05
111.5	4.84E-05
111.75	5.58E-05
112	5.77E-05
112.25	5.82E-05
112.5	4.17E-05
112.75	2.50E-05
113	1.26E-05
113.25	1.19E-05
113.5	1.14E-05
113.75	1.45E-05
114	9.78E-06
114.25	1.31E-05
114.5	9.54E-06
114.75	9.06E-06
115	3.58E-06
115.25	1.14E-05
115.5	1.50E-05
115.75	1.48E-05
116	1.36E-05
116.25	1.65E-05
116.5	1.88E-05
116.75	1.29E-05
117	1.50E-05
117.25	1.34E-05
117.5	1.31E-05
117.749	1.31E-05
118	1.55E-05
118.25	1.31E-05
118.5	1.14E-05
118.75	9.78E-06
119	1.22E-05
119.25	1.31E-05
119.5	1.19E-05
119.75	1.14E-05
120	1.14E-05
120	1.10E-05
-63.9987	0.000318768
-63.7487	0.000314476
-63.4987	0.000310423
-63.2487	0.000296595
-62.9987	0.000289919
-62.7487	0.000286104
-62.4987	0.000281336
-62.2487	0.000274422
-61.9987	0.000272753
-61.7487	0.000266554
-61.4987	0.000266315
-61.2487	0.000267269
-60.9987	0.000263931
-60.7487	0.000258686
-60.4987	0.000257256
-60.2487	0.000252726
-59.9987	0.000254633
-59.7487	0.000256779
-59.4987	0.00025511
-59.2487	0.00025058
-58.9987	0.000247242
-58.7487	0.000251295
-58.4987	0.000245096
-58.2487	0.000248196
-57.9987	0.000244619
-57.7487	0.000243903
-57.4987	0.000245573
-57.2487	0.000244142
-56.9987	0.000243903
-56.7487	0.000241757
-56.4987	0.000243665
-56.2487	0.000240804
-55.9987	0.000243426
-55.7487	0.000244142
-55.4987	0.000245811
-55.2487	0.000246765
-54.9988	0.000243426
-54.7487	0.000241996
-54.4988	0.000244619
-54.2488	0.000246765
-53.9988	0.000245096
-53.7488	0.000246288
-53.4988	0.000243426
-53.2488	0.000244858
-52.9988	0.00024605
-52.7488	0.000247242
-52.4988	0.000249865
-52.2488	0.000251295
-51.9988	0.000248672
-51.7488	0.000251533
-51.4988	0.000248672
-51.2488	0.00025058
-50.9988	0.000248434
-50.7488	0.000251772
-50.4988	0.000250341
-50.2488	0.000249388
-50.0005	0.000252726
-49.7488	0.000253918
-49.4988	0.000253679
-49.2488	0.000252964
-48.9988	0.000257494
-48.7488	0.000259878
-48.4988	0.000261309
-48.2488	0.000259401
-47.9988	0.000263454
-47.7488	0.000259163
-47.4988	0.000260593
-47.2488	0.000261309
-46.9988	0.000262262
-46.7488	0.000262978
-46.4988	0.000264885
-46.2488	0.000263216
-45.9988	0.000263931
-45.7488	0.000264885
-45.5	0.000266792
-45.2498	0.00027013
-45.0002	0.000268938
-44.7488	0.000267984
-44.4988	0.000273468
-44.2488	0.000270607
-43.9988	0.000273706
-43.7488	0.000274183
-43.4988	0.000271322
-43.2488	0.000273468
-42.9988	0.000277998
-42.7489	0.000272753
-42.4989	0.000277521
-42.2489	0.000273468
-41.9989	0.000277998
-41.7489	0.000275614
-41.4989	0.00027919
-41.2489	0.000281097
-40.9989	0.000286343
-40.7489	0.000284435
-40.4989	0.000284197
-40.2489	0.000286343
-39.9989	0.000284912
-39.7489	0.000287296
-39.4989	0.000286104
-39.2489	0.000288727
-38.9989	0.000288488
-38.7489	0.000290157
-38.4989	0.000293018
-38.2489	0.000296118
-37.9989	0.000295879
-37.7489	0.000293972
-37.4989	0.000294449
-37.2489	0.000297787
-36.9989	0.000296118
-36.7489	0.000300648
-36.4989	0.000301125
-36.2489	0.000299217
-35.9989	0.000297071
-35.7489	0.000302793
-35.4989	0.000301125
-35.2489	0.000303747
-34.9989	0.000301125
-34.7489	0.000304939
-34.4989	0.000307323
-34.2489	0.000306608
-33.9989	0.000305416
-33.7489	0.000308516
-33.4989	0.000308992
-33.249	0.000307085
-32.9992	0.000309708
-32.7492	0.000309469
-32.4989	0.00031233
-32.2494	0.000313284
-31.9994	0.000311138
-31.7489	0.000314714
-31.4989	0.000313761
-31.2489	0.000314953
-30.9989	0.000317099
-30.7489	0.000317099
-30.4989	0.000317337
-30.2489	0.000318052
-29.9989	0.000323059
-29.7489	0.000320436
-29.499	0.000321867
-29.2489	0.000320436
-28.999	0.000323297
-28.749	0.000323297
-28.499	0.000325443
-28.249	0.000324251
-27.999	0.000323297
-27.749	0.000323774
-27.499	0.000324251
-27.249	0.000325682
-26.999	0.000329496
-26.749	0.000328066
-26.499	0.000330212
-26.249	0.000329496
-25.999	0.000326874
-25.749	0.000331165
-25.499	0.000329258
-25.249	0.000333311
-24.999	0.00033498
-24.749	0.000335934
-24.499	0.000337364
-24.249	0.000333788
-23.999	0.000339748
-23.749	0.000335934
-23.499	0.000337364
-23.249	0.000343563
-22.999	0.00034094
-22.749	0.000343801
-22.499	0.000339272
-22.249	0.000342371
-21.999	0.000343325
-21.749	0.000342609
-21.499	0.000341417
-21.249	0.000347139
-20.999	0.000342848
-20.749	0.000345709
-20.4992	0.000346424
-20.2492	0.000344517
-19.9995	0.000344994
-19.7493	0.000350954
-19.499	0.000351431
-19.249	0.000350477
-18.999	0.000353577
-18.749	0.000350954
-18.499	0.000350954
-18.249	0.000353338
-17.999	0.000352623
-17.749	0.000354053
-17.4991	0.000351908
-17.249	0.0003531
-16.9991	0.000352623
-16.749	0.000356438
-16.4991	0.000355246
-16.2491	0.000354053
-15.9991	0.000354769
-15.7491	0.000357153
-15.4991	0.000357391
-15.2491	0.000356199
-14.9991	0.000356914
-14.7491	0.000359299
-14.4991	0.000360252
-14.2491	0.000361444
-13.9991	0.000360968
-13.7511	0.000361444
-13.4991	0.000361206
-13.2491	0.000362637
-12.9991	0.000365021
-12.7491	0.00036359
-12.4991	0.000360491
-12.2491	0.000366213
-11.9991	0.000363113
-11.7491	0.000366213
-11.4991	0.000366928
-11.2491	0.000366213
-10.9991	0.000369789
-10.7491	0.000368597
-10.4991	0.000367166
-10.2491	0.000370266
-9.9991	0.000370027
-9.75024	0.000371696
-9.50029	0.000372412
-9.24911	0.000370027
-8.99911	0.000369789
-8.74911	0.00037265
-8.49912	0.000374557
-8.24911	0.000374796
-7.99912	0.000374081
-7.74911	0.000373604
-7.49912	0.000374796
-7.24913	0.000375988
-6.99913	0.000376465
-6.74913	0.000374557
-6.49913	0.000376465
-6.24914	0.000378134
-5.99913	0.000375034
-5.74914	0.00037575
-5.49914	0.000377418
-5.24914	0.000375511
-4.99915	0.000378134
-4.74915	0.000377418
-4.49915	0.000379326
-4.24915	0.000373604
-3.99915	0.000375511
-3.74915	0.00037575
-3.49915	0.000377657
-3.24916	0.000374081
-2.99916	0.000373604
-2.74917	0.000378372
-2.49916	0.000377418
-2.24917	0.000378611
-1.99916	0.000378611
-1.74917	0.000381948
-1.49917	0.00037718
-1.24918	0.000379803
-0.999176	0.000379803
-0.749176	0.000378134
-0.499184	0.000377895
-0.249176	0.000375511
0.000816345	0.000376465
0.250816	0.000379326
0.500809	0.00037575
0.750816	0.000376942
1.00081	0.000375988
1.25073	0.000376226
1.50072	0.000375511
1.7508	0.000374796
2.0008	0.000377657
2.2508	0.000377657
2.5008	0.000378849
2.75079	0.000376465
3.00079	0.000376942
3.25079	0.000378372
3.50079	0.000373604
3.75079	0.000378134
4.00079	0.00037718
4.25079	0.00037575
4.50078	0.000373842
4.75079	0.000374081
5.00078	0.000372889
5.25077	0.000374557
5.50078	0.000371458
5.75077	0.000372412
6.00077	0.000369551
6.25076	0.000371935
6.50077	0.000369789
6.75076	0.000376942
7.00077	0.000373127
7.25076	0.000372173
7.50076	0.000373127
7.75076	0.000374796
8.00076	0.000373604
8.25076	0.000376942
8.50075	0.000376465
8.75076	0.000379087
9.00075	0.000376226
9.25074	0.00037575
9.50075	0.000379087
9.75074	0.000374796
10.0007	0.000378134
10.2507	0.00037575
10.4995	0.00037718
10.7492	0.000379564
10.999	0.000378611
11.249	0.000375273
11.4986	0.000377657
11.7486	0.000380041
12.0007	0.000375988
12.2507	0.000376942
12.5007	0.000373604
12.7507	0.000376465
13.0007	0.000379087
13.2507	0.000374796
13.5007	0.000376465
13.7507	0.000375988
14.0007	0.000371935
14.2507	0.000371458
14.5007	0.000373604
14.7507	0.000373127
15.0007	0.000370504
15.2507	0.000369074
15.5007	0.000370981
15.7507	0.000368597
16.0007	0.000367643
16.2507	0.00036812
16.4991	0.000367405
16.749	0.000367405
17.0007	0.000365974
17.2507	0.000364782
17.5007	0.000365498
17.7507	0.000362637
18.0007	0.000364067
18.2507	0.000361921
18.5007	0.000361921
18.7507	0.000365259
19.0007	0.000362637
19.2507	0.000358345
19.5007	0.000359299
19.7507	0.000358107
20.0007	0.00035763
20.2507	0.000359299
20.5007	0.000360729
20.7507	0.000358107
21.0006	0.000360968
21.2506	0.000358583
21.5006	0.000353338
21.7506	0.000355722
22.0006	0.000357391
22.2506	0.000355246
22.5006	0.000355961
22.7506	0.000358822
23.0006	0.000357391
23.2506	0.00035763
23.5006	0.00035906
23.7506	0.000359299
24.0006	0.000356676
24.2506	0.000355722
24.5006	0.000353577
24.7506	0.000354769
25.0006	0.000353577
25.2506	0.0003531
25.5006	0.000355007
25.7506	0.000351431
26.0006	0.000353577
26.2506	0.000349762
26.5006	0.000353577
26.7506	0.000350477
27.0006	0.000349762
27.2506	0.000351908
27.5006	0.000348093
27.7506	0.000347616
28.0006	0.000350477
28.2506	0.000349047
28.5006	0.000346901
28.7506	0.000347139
29.0006	0.00034547
29.2501	0.000344278
29.5001	0.000345232
29.7506	0.000344517
30.0006	0.000340702
30.2506	0.000338556
30.5006	0.000342848
30.7506	0.000337841
31.0006	0.000337603
31.2506	0.00034094
31.5006	0.000338795
31.7506	0.000333788
32.0006	0.000333788
32.2506	0.000333311
32.5006	0.000335934
32.7506	0.000332357
33.0006	0.000330927
33.2506	0.000329973
33.5006	0.000329258
33.7501	0.000324728
34.0005	0.000327112
34.2505	0.000326397
34.5005	0.00032902
34.7505	0.000324966
35.0005	0.000323297
35.2505	0.000323297
35.5005	0.000322582
35.7505	0.000323059
36.0005	0.000322582
36.2505	0.000322582
36.5005	0.000319483
36.7505	0.000317099
37.0005	0.000321152
37.2505	0.000314714
37.5005	0.000317814
37.7505	0.000313045
38.0005	0.00031233
38.2505	0.00031233
38.5005	0.000312807
38.7505	0.000311615
39.0005	0.000312092
39.2505	0.000312807
39.5005	0.000307085
39.7505	0.000308277
40.0005	0.000309469
40.2505	0.000304939
40.5005	0.000308754
40.7505	0.000303747
41.0005	0.000301601
41.2505	0.000303509
41.5005	0.000302078
41.7505	0.000300409
42.0005	0.00030327
42.2505	0.000299456
42.5005	0.000300648
42.7505	0.000299932
43.0005	0.000301125
43.2505	0.000296356
43.5005	0.000295641
43.7505	0.000293972
44.0005	0.000291588
44.2505	0.000291111
44.5005	0.000291588
44.7505	0.000288488
45.0005	0.00029421
45.2505	0.000288965
45.5005	0.000287296
45.7505	0.000288488
46.0005	0.000285389
46.2505	0.000287296
46.5005	0.000286104
46.7505	0.000284435
47.0005	0.000284435
47.2505	0.000284435
47.5005	0.000285627
47.7504	0.000281813
48.0004	0.000278236
48.2504	0.000281574
48.5004	0.000277998
48.7504	0.000280144
49.0004	0.000281336
49.249	0.000277998
49.5004	0.000278475
49.7504	0.000273945
50.0004	0.000275137
50.2504	0.000276091
50.5004	0.000275852
50.7504	0.000272514
51.0004	0.000273945
51.2504	0.000272037
51.5004	0.000274422
51.7504	0.000276567
52.0004	0.000276806
52.2504	0.000277521
52.4998	0.000277998
52.7497	0.000277283
53.0004	0.000276806
53.2504	0.000275614
53.5004	0.000278713
53.7504	0.000280621
54.0004	0.000278952
54.2504	0.000281336
54.5004	0.000284435
54.7504	0.000283958
55.0004	0.000284435
55.2504	0.000287296
55.5004	0.000295641
55.7504	0.000298502
56.0004	0.000302793
56.2504	0.000305654
56.5004	0.000313761
56.7504	0.000319244
57.0004	0.000321867
57.2504	0.000324728
57.5004	0.000327827
57.7504	0.000333073
58.0004	0.00034094
58.2504	0.000342371
58.5004	0.000350716
58.7504	0.000361206
59.0004	0.000368597
59.2504	0.000379326
59.5004	0.000386955
59.7504	0.00039673
60.0004	0.00040579
60.2503	0.000409605
60.5003	0.000418188
60.7503	0.000431539
61.0003	0.000447275
61.2503	0.000460627
61.5003	0.000473263
61.7503	0.000476839
62.0003	0.0004797
62.2503	0.000489239
62.5003	0.000504974
62.7503	0.000533585
63.0003	0.000568394
63.2503	0.000596289
63.5003	0.000617508
63.7503	0.000639919
64.0003	0.000655416
64.2503	0.000668768
64.5003	0.000700239
64.7503	0.000722889
65.0003	0.000746731
65.2503	0.000773434
65.5003	0.0007906
65.7503	0.000830416
66.0003	0.000859503
66.2503	0.000895265
66.5003	0.000931267
66.7503	0.000971083
67.0003	0.000990637
67.2503	0.00102521
67.5003	0.00108648
67.7503	0.00115538
68.0003	0.00121427
68.2503	0.00124098
68.5003	0.00128151
68.7503	0.0013249
69.0003	0.00134254
69.2503	0.00138784
69.5003	0.00141359
69.7503	0.00147081
70.0003	0.00150753
70.2503	0.00154186
70.5003	0.00161911
70.7503	0.00167084
71.0003	0.00172449
71.2503	0.00175834
71.5003	0.00180388
71.7503	0.00186659
72.0003	0.00195624
72.2503	0.00201251
72.5003	0.00203063
72.7503	0.00207807
73.0002	0.00211312
73.2502	0.00210287
73.5002	0.0021217
73.7502	0.00221516
74.0002	0.0022607
74.2502	0.00239851
74.5002	0.00247313
74.7502	0.0025387
75.0002	0.00248577
75.2502	0.00249244
75.5002	0.00254418
75.7502	0.00259568
76.0002	0.00258209
76.2502	0.0025263
76.5002	0.00249006
76.7502	0.00257446
77.0002	0.00266005
77.2502	0.00278617
77.5002	0.00279571
77.7502	0.00274135
78.0002	0.00261523
78.2502	0.00254132
78.5002	0.00253679
78.7502	0.0025344
79.0002	0.00251414
79.2502	0.00267817
79.5002	0.00281383
79.7502	0.00278093
80.0002	0.00261904
80.2502	0.00258757
80.5002	0.00256945
80.7502	0.00257899
81.0002	0.00248028
81.2502	0.00236131
81.5002	0.00231005
81.7502	0.00229432
82.0002	0.00220324
82.2502	0.00205685
82.5002	0.00199701
82.7502	0.00204803
83.0002	0.0020652
83.2502	0.00191236
83.5002	0.00170565
83.7502	0.00142575
84.0002	0.00107766
84.2502	0.000632767
84.5002	0.000323774
84.7502	0.000167848
85.0002	0.000124455
85.2502	0.000109435
85.5002	0.000101567
85.7502	0.000102044
86.0001	0.000100613
86.2501	9.92E-05
86.5001	9.94E-05
86.7501	9.85E-05
87	0.000104189
87.2501	0.000108243
87.5001	0.000106812
87.7501	0.000104428
88.0001	0.000106097
88.2501	0.000106097
88.5001	0.000107527
88.7501	0.000113011
89.0001	0.000113011
89.2501	0.000110627
89.5001	0.000114441
89.7501	0.000117779
90.0001	0.0001328
90.2501	0.000139953
90.5001	0.000140429
90.7501	0.000149966
91.0001	0.000157357
91.2501	0.000165463
91.5001	0.000170947
91.7501	0.000179769
92.0001	0.000182868
92.2501	0.000184775
92.5001	0.000188113
92.7501	0.000200273
93.0001	0.000209094
93.2501	0.000214816
93.5001	0.000208379
93.7501	0.000206948
94.0001	0.00020218
94.2501	0.000208856
94.5001	0.000211955
94.7501	0.000233413
95.0001	0.000251295
95.2501	0.00024748
95.5001	0.000241281
95.7501	0.000226022
96.0001	0.000176192
96.2501	0.000119448
96.5001	7.77E-05
96.7501	6.13E-05
97.0001	6.41E-05
97.2501	6.25E-05
97.5001	7.61E-05
97.7501	7.63E-05
98.0001	8.13E-05
98.2501	8.68E-05
98.5001	9.39E-05
98.75	0.000116826
99	0.000141145
99.25	0.000166894
99.5	0.000175954
99.75	0.000203134
100	0.000236274
100.25	0.000289442
100.5	0.000214101
100.75	0.000101328
101	1.31E-05
101.25	1.50E-05
101.5	1.12E-05
101.75	1.12E-05
102	1.17E-05
102.25	1.62E-05
102.5	1.26E-05
102.75	1.36E-05
103	1.65E-05
103.25	1.36E-05
103.5	1.62E-05
103.75	1.10E-05
104	1.45E-05
104.25	2.10E-05
104.5	1.50E-05
104.75	1.29E-05
105	1.76E-05
105	1.72E-05
