Photodiode Viewing Angle (Degrees) - Plot 0	Lock-in Signal Amplitude (V) - Plot 0
-18.9987	0.000381472
-18.7487	0.000366213
-18.4987	0.000350954
-18.2487	0.000354769
-17.9987	0.000373842
-17.7487	0.00040436
-17.4987	0.000457766
-17.2487	0.000499729
-16.9987	0.000534061
-16.7487	0.000560764
-16.4987	0.000579838
-16.2487	0.000587467
-15.9987	0.000587467
-15.7487	0.000583652
-15.4987	0.000579838
-15.2487	0.000579838
-14.9987	0.000576023
-14.7487	0.000568394
-14.4987	0.000568394
-14.2487	0.000560764
-13.9987	0.000553135
-13.7487	0.000545505
-13.4987	0.000522617
-13.2487	0.000495914
-12.9987	0.000453951
-12.7487	0.000408174
-12.4987	0.000362398
-12.2487	0.000328066
-11.9989	0.000305178
-11.7489	0.000293734
-11.4988	0.000301363
-11.249	0.000316622
-10.9991	0.000335695
-10.7487	0.000354769
-10.4987	0.000370027
-10.2487	0.000389101
-9.99876	0.000392916
-9.74875	0.000400545
-9.49876	0.000408174
-9.24876	0.00040436
-8.99876	0.000408174
-8.74876	0.000408174
-8.49876	0.000408174
-8.24878	0.000408174
-7.99876	0.000411989
-7.74878	0.000415804
-7.49878	0.000415804
-7.24878	0.000415804
-6.99878	0.000415804
-6.74887	0.000415804
-6.49884	0.000415804
-6.24905	0.000411989
-5.99928	0.000411989
-5.74937	0.000411989
-5.49879	0.000408174
-5.24879	0.000408174
-4.99879	0.000408174
-4.74879	0.000411989
-4.49879	0.000408174
-4.24879	0.000408174
-3.99879	0.000408174
-3.74881	0.000408174
-3.49881	0.000408174
-3.24881	0.000411989
-2.99881	0.000408174
-2.74881	0.000411989
-2.49881	0.000411989
-2.24881	0.000411989
-1.99883	0.000411989
-1.74883	0.000411989
-1.49883	0.00040436
-1.24883	0.000408174
-0.998825	0.00040436
-0.748825	0.00040436
-0.498825	0.00040436
-0.248825	0.00040436
0.00117493	0.000408174
0.25116	0.000408174
0.50116	0.000408174
0.750046	0.000408174
0.999939	0.000411989
1.24985	0.000408174
1.50023	0.000408174
1.75116	0.000408174
2.00116	0.000408174
2.25114	0.00040436
2.50114	0.00040436
2.75114	0.000400545
3.00114	0.00040436
3.25114	0.000400545
3.50114	0.000400545
3.75114	0.000400545
4.00113	0.00040436
4.25113	0.00039673
4.50113	0.00040436
4.75113	0.00040436
5.00113	0.00040436
5.25113	0.00040436
5.50113	0.00040436
5.75111	0.00040436
6.00113	0.00040436
6.25111	0.00040436
6.50111	0.000400545
6.75111	0.000400545
7.00111	0.000400545
7.25111	0.00039673
7.50111	0.00040436
7.75111	0.00040436
8.0011	0.000400545
8.25111	0.00040436
8.5011	0.000408174
8.7511	0.00040436
9.00105	0.00040436
9.2511	0.000400545
9.50098	0.000392916
9.75108	0.000392916
10.0011	0.000392916
10.2511	0.000392916
10.5011	0.000392916
10.7511	0.000392916
11.0011	0.000392916
11.2511	0.00039673
11.5011	0.000392916
11.7511	0.00039673
12.0011	0.000392916
12.2511	0.000392916
12.5011	0.000392916
12.7511	0.000389101
13.0011	0.000389101
13.2511	0.000389101
13.5011	0.000392916
13.7511	0.000389101
14.0011	0.000392916
14.2511	0.000392916
14.5011	0.000389101
14.7511	0.000392916
15.0011	0.000392916
15.2511	0.000392916
15.501	0.000389101
15.7511	0.000389101
16.001	0.000389101
16.251	0.000385286
16.501	0.000381472
16.751	0.000381472
17.001	0.000377657
17.2499	0.000377657
17.4998	0.000377657
17.7496	0.000377657
17.9993	0.000381472
18.251	0.000377657
18.501	0.000377657
18.7487	0.000377657
19.001	0.000377657
19.251	0.000377657
19.501	0.000377657
19.751	0.000373842
20.001	0.000373842
20.251	0.000373842
20.501	0.000373842
20.751	0.000366213
21.001	0.000373842
21.251	0.000370027
21.501	0.000370027
21.751	0.000366213
22.001	0.000370027
22.251	0.000366213
22.4996	0.000370027
22.751	0.000373842
22.9999	0.000370027
23.2494	0.000370027
23.4993	0.000370027
23.751	0.000366213
24.001	0.000366213
24.251	0.000366213
24.501	0.000362398
24.751	0.000362398
25.001	0.000362398
25.251	0.000354769
25.501	0.000362398
25.751	0.000358583
26.001	0.000354769
26.251	0.000358583
26.501	0.000354769
26.751	0.000358583
27.001	0.000358583
27.251	0.000354769
27.5009	0.000347139
27.751	0.000350954
28.0009	0.000350954
28.251	0.000350954
28.5009	0.000350954
28.7509	0.000350954
29.0009	0.000347139
29.2509	0.000343325
29.5009	0.000343325
29.7509	0.00033951
30.0009	0.00033951
30.2509	0.00033951
30.5009	0.00033951
30.7509	0.00033951
31.0009	0.000335695
31.2509	0.000335695
31.5009	0.000335695
31.7509	0.00033951
32.0009	0.00033951
32.2509	0.000335695
32.5009	0.000335695
32.7503	0.00033951
33.0002	0.000335695
33.2505	0.00033951
33.5009	0.000331881
33.7509	0.000328066
34.0009	0.000320436
34.2509	0.000316622
34.5009	0.000316622
34.7509	0.000316622
35.0009	0.000316622
35.2509	0.000316622
35.5009	0.000320436
35.7509	0.000320436
36.0009	0.000316622
36.2509	0.000316622
36.5009	0.000316622
36.7509	0.000316622
37.0009	0.000316622
37.2509	0.000316622
37.5004	0.000305178
37.7505	0.000305178
38.0009	0.000301363
38.2502	0.000297548
38.5	0.000301363
38.7494	0.000301363
39.0009	0.000301363
39.2509	0.000301363
39.5009	0.000301363
39.7509	0.000301363
40.0009	0.000301363
40.2509	0.000293734
40.5008	0.000289919
40.7509	0.000289919
41.0008	0.000289919
41.2508	0.000289919
41.5008	0.000286104
41.7508	0.000286104
42.0008	0.000286104
42.2508	0.000286104
42.5008	0.000282289
42.7508	0.000286104
43.0008	0.000282289
43.2508	0.000282289
43.5008	0.00027466
43.7508	0.00027466
44.0008	0.000267031
44.2508	0.000267031
44.5008	0.000263216
44.7508	0.000263216
45.0008	0.000263216
45.2508	0.000263216
45.5008	0.000263216
45.7508	0.000263216
46.0008	0.000263216
46.2508	0.000263216
46.5008	0.000259401
46.7508	0.000259401
47.0008	0.000255587
47.2508	0.000251772
47.5008	0.000244142
47.7507	0.000244142
48.0006	0.000236512
48.2505	0.000240327
48.5003	0.000240327
48.7505	0.000240327
49.0001	0.000240327
49.2508	0.000240327
49.5008	0.000240327
49.7508	0.000236512
50.0008	0.000236512
50.2508	0.000236512
50.5008	0.000232697
50.7508	0.000225068
51.0008	0.000225068
51.2508	0.000221253
51.5008	0.000213624
51.7508	0.000213624
52.0008	0.000209809
52.2508	0.000209809
52.5008	0.000205995
52.7508	0.00020218
53.0008	0.000198365
53.2508	0.00019455
53.5007	0.000190736
53.7508	0.000190736
54.0007	0.000190736
54.2507	0.00019455
54.5007	0.000198365
54.7507	0.000190736
55.0007	0.000190736
55.2507	0.000186921
55.5007	0.000183106
55.7507	0.000183106
56.0007	0.000183106
56.2507	0.000175477
56.5007	0.000175477
56.7507	0.000171662
57.0007	0.000167848
57.2507	0.000164033
57.5007	0.000160218
57.7507	0.000160218
58.0007	0.000156404
58.2507	0.000160218
58.5007	0.000156404
58.7507	0.000156404
59.0007	0.000152589
59.2507	0.000144959
59.5007	0.00013733
59.7507	0.00013733
60.0007	0.000129701
60.2507	0.000129701
60.5007	0.000129701
60.7507	0.000125886
61.0007	0.000122071
61.2507	0.000118256
61.5003	0.000110627
61.7495	0.000102997
61.9996	0.000102997
62.2491	9.92E-05
62.5007	9.92E-05
62.7507	9.54E-05
63.0007	9.16E-05
63.2507	8.77E-05
63.5007	8.39E-05
63.7507	8.01E-05
64.0007	7.63E-05
64.2507	7.63E-05
64.5007	7.25E-05
64.7507	6.49E-05
65.0007	6.10E-05
65.2507	5.72E-05
65.5007	5.34E-05
65.7507	4.96E-05
66.0006	4.96E-05
66.2506	4.96E-05
66.5006	4.58E-05
66.7506	4.96E-05
67.0006	4.20E-05
67.2506	3.43E-05
67.5006	3.43E-05
67.7506	3.43E-05
67.9982	3.43E-05
68.2506	2.67E-05
68.5006	2.67E-05
68.7506	2.67E-05
69.0006	2.67E-05
69.2506	2.29E-05
69.5006	2.29E-05
69.7506	2.29E-05
70.0006	1.91E-05
70.2506	2.29E-05
70.5006	1.91E-05
70.7506	1.53E-05
71.0006	1.91E-05
71.2506	1.91E-05
71.5006	1.91E-05
71.7506	1.91E-05
72.0006	1.53E-05
72.2506	1.53E-05
72.5006	1.53E-05
72.7506	1.91E-05
73.0006	1.53E-05
73.2506	1.53E-05
73.5006	1.14E-05
73.7506	1.53E-05
74.0006	1.53E-05
74.2506	1.53E-05
74.5006	1.91E-05
74.7506	1.91E-05
75.0006	1.53E-05
75.2506	1.14E-05
75.5006	1.53E-05
75.7506	1.14E-05
76.0006	1.53E-05
76.2506	1.53E-05
76.5006	1.53E-05
76.7506	1.53E-05
77.0006	1.53E-05
77.2506	1.53E-05
77.5006	1.53E-05
77.7506	1.91E-05
78.0006	1.91E-05
78.2506	1.53E-05
78.5006	1.53E-05
78.7506	1.53E-05
79.0005	1.53E-05
79.2505	1.91E-05
79.5005	1.91E-05
79.7505	1.91E-05
80.0005	1.91E-05
80.2505	1.91E-05
80.5005	1.91E-05
80.7505	1.14E-05
81.0005	1.53E-05
81.2505	1.53E-05
81.5005	1.53E-05
81.749	1.91E-05
82.0005	1.53E-05
82.2505	1.91E-05
82.5005	1.91E-05
82.7505	1.91E-05
83.0005	2.29E-05
83.2505	1.91E-05
83.5005	1.91E-05
83.7505	2.29E-05
84.0005	2.29E-05
84.2505	2.29E-05
84.5005	2.29E-05
84.7505	2.29E-05
85.0005	2.29E-05
85.2505	2.29E-05
85.5005	1.91E-05
85.7505	2.29E-05
86.0002	2.29E-05
86.2493	2.29E-05
86.5005	2.29E-05
86.7505	2.67E-05
87.0005	2.29E-05
87.2505	2.29E-05
87.5005	2.29E-05
87.7505	2.29E-05
88.0005	2.29E-05
88.2505	2.29E-05
88.5005	2.29E-05
88.7505	2.29E-05
89.0005	2.29E-05
89.2505	1.91E-05
89.5005	2.29E-05
89.7505	2.29E-05
90.0005	2.29E-05
90.2505	2.29E-05
90.5005	2.29E-05
90.7505	2.29E-05
91.0005	1.91E-05
91.2505	1.91E-05
91.5005	1.91E-05
91.7505	1.91E-05
92.0005	1.91E-05
92.2505	1.91E-05
92.5005	2.29E-05
92.7504	2.29E-05
93.0004	1.91E-05
93.2504	1.91E-05
93.5004	1.91E-05
93.7504	2.29E-05
94.0004	1.91E-05
94.2504	1.53E-05
94.5004	1.91E-05
94.7504	1.91E-05
95.0004	1.53E-05
95.2504	1.91E-05
95.5004	1.53E-05
95.7504	1.53E-05
96.0004	1.53E-05
96.2504	1.91E-05
96.5004	1.53E-05
96.7504	1.53E-05
97.0004	1.53E-05
97.2504	1.91E-05
97.5004	1.91E-05
97.7504	1.53E-05
98.0004	1.91E-05
98.2504	1.14E-05
98.5004	1.14E-05
98.7504	1.91E-05
99.0004	1.53E-05
99.2504	1.53E-05
99.5004	1.14E-05
99.7504	1.91E-05
100	1.14E-05
100.25	1.53E-05
100.5	1.14E-05
100.75	1.53E-05
101	1.14E-05
101.25	1.14E-05
101.5	7.63E-06
101.75	1.14E-05
102	1.14E-05
102.25	1.14E-05
102.5	1.14E-05
102.75	1.53E-05
103	1.14E-05
103.25	7.63E-06
103.5	7.63E-06
103.75	1.14E-05
104	7.63E-06
104.25	1.14E-05
104.5	1.14E-05
104.75	1.14E-05
105	7.63E-06
105.25	3.81E-06
105.5	7.63E-06
105.75	7.63E-06
106	7.63E-06
106.25	7.63E-06
106.5	7.63E-06
106.75	7.63E-06
107	7.63E-06
107.25	3.81E-06
107.5	7.63E-06
107.75	3.81E-06
108	7.63E-06
108.25	3.81E-06
108.5	3.81E-06
108.75	3.81E-06
109	3.81E-06
109.25	3.81E-06
109.5	3.81E-06
109.75	7.63E-06
110	3.81E-06
110.25	3.81E-06
110.5	3.81E-06
110.75	3.81E-06
111	7.63E-06
111.25	7.63E-06
111.5	3.81E-06
111.75	7.63E-06
112	0
112.25	3.81E-06
112.5	7.63E-06
112.75	0
113	3.81E-06
113.25	0
113.5	3.81E-06
113.75	3.81E-06
114	3.81E-06
114.25	3.81E-06
114.5	3.81E-06
114.75	3.81E-06
115	3.81E-06
115.25	3.81E-06
115.5	3.81E-06
115.75	3.81E-06
116	3.81E-06
116.25	3.81E-06
116.5	3.81E-06
116.75	3.81E-06
117	0
117.25	0
117.5	0
117.75	0
118	0
118.25	3.81E-06
118.5	3.81E-06
118.75	3.81E-06
119	3.81E-06
119.25	3.81E-06
119.5	3.81E-06
119.75	0
120	7.63E-06
120.25	3.81E-06
120.5	0
120.75	3.81E-06
121	3.81E-06
121.25	7.63E-06
121.5	3.81E-06
121.75	3.81E-06
122	7.63E-06
122.25	7.63E-06
122.5	7.63E-06
122.75	3.81E-06
123	1.14E-05
123.25	7.63E-06
123.5	3.81E-06
123.75	3.81E-06
124	3.81E-06
124.25	7.63E-06
124.5	3.81E-06
124.75	7.63E-06
125	7.63E-06
125.25	7.63E-06
125.5	7.63E-06
125.75	3.81E-06
126	7.63E-06
126.25	1.14E-05
126.5	1.53E-05
126.75	2.29E-05
127	2.29E-05
127.25	2.29E-05
127.5	2.29E-05
127.75	2.29E-05
128	2.29E-05
128.25	2.29E-05
128.5	2.29E-05
128.75	2.67E-05
129	2.29E-05
129.25	2.29E-05
129.5	2.67E-05
129.75	2.29E-05
130	2.67E-05
130.25	2.29E-05
130.5	2.67E-05
130.75	2.29E-05
131	2.67E-05
131.25	2.67E-05
131.5	2.67E-05
131.75	2.67E-05
132	2.67E-05
132.25	2.29E-05
132.5	1.53E-05
132.75	1.14E-05
133	7.63E-06
133.25	1.14E-05
133.5	3.81E-06
133.75	7.63E-06
134	7.63E-06
134.25	7.63E-06
134.5	3.81E-06
134.75	7.63E-06
135	1.14E-05
135.25	7.63E-06
135.5	7.63E-06
135.75	7.63E-06
136	1.14E-05
136.25	3.81E-06
136.5	1.14E-05
136.75	7.63E-06
137	1.14E-05
137.25	7.63E-06
137.5	7.63E-06
137.75	1.14E-05
138	7.63E-06
138.25	3.81E-06
138.5	1.14E-05
138.75	7.63E-06
138.999	7.63E-06
139.249	3.81E-06
139.5	7.63E-06
139.75	1.14E-05
140	1.14E-05
140.25	1.14E-05
140.5	7.63E-06
140.75	1.14E-05
141	7.63E-06
141.25	1.14E-05
141.5	1.14E-05
141.75	7.63E-06
142	7.63E-06
142.25	1.14E-05
142.5	1.14E-05
142.75	7.63E-06
143	3.81E-06
143.25	7.63E-06
143.5	1.14E-05
143.75	7.63E-06
144	1.14E-05
144.25	1.14E-05
144.5	7.63E-06
144.75	1.14E-05
145	7.63E-06
145.25	1.14E-05
145.5	3.81E-06
145.75	1.14E-05
146	1.14E-05
146.25	7.63E-06
146.5	7.63E-06
146.75	7.63E-06
147	1.14E-05
147.25	7.63E-06
147.5	1.14E-05
147.75	7.63E-06
148	1.14E-05
148.25	1.14E-05
148.5	1.14E-05
148.75	1.14E-05
149	1.14E-05
149.25	1.14E-05
149.5	7.63E-06
149.75	1.14E-05
150	1.14E-05
150	1.14E-05
-33.9987	0.000392916
-33.7487	0.000392916
-33.4987	0.000389101
-33.2487	0.000385286
-32.9987	0.000381472
-32.7487	0.000381472
-32.4987	0.000381472
-32.2487	0.000370027
-31.9987	0.000366213
-31.7487	0.000358583
-31.4987	0.000362398
-31.2487	0.000358583
-30.9987	0.000354769
-30.7487	0.000350954
-30.4987	0.000358583
-30.2487	0.000354769
-29.9987	0.000350954
-29.7487	0.000347139
-29.4987	0.000347139
-29.2487	0.000347139
-28.9987	0.000347139
-28.7487	0.000347139
-28.4987	0.000347139
-28.2487	0.000347139
-27.9987	0.000347139
-27.7487	0.000343325
-27.4987	0.000347139
-27.2487	0.000350954
-26.9987	0.000347139
-26.7487	0.000350954
-26.4987	0.000350954
-26.2487	0.000347139
-25.9987	0.000347139
-25.7487	0.000343325
-25.4987	0.000347139
-25.2487	0.000343325
-24.9988	0.000347139
-24.7487	0.00033951
-24.4988	0.000347139
-24.2488	0.000347139
-23.9988	0.000347139
-23.7488	0.000347139
-23.4988	0.00033951
-23.2488	0.000347139
-22.9988	0.000350954
-22.7488	0.000354769
-22.4988	0.000347139
-22.2488	0.000350954
-21.9988	0.000347139
-21.7488	0.000354769
-21.4988	0.000347139
-21.2488	0.000350954
-20.9988	0.000350954
-20.7488	0.000347139
-20.4988	0.000347139
-20.2488	0.000343325
-19.9988	0.000347139
-19.7488	0.000350954
-19.4988	0.000350954
-19.2488	0.000350954
-18.9988	0.000354769
-18.7488	0.000354769
-18.4988	0.000358583
-18.2488	0.000354769
-17.9988	0.000354769
-17.7488	0.000358583
-17.4988	0.000354769
-17.2488	0.000354769
-16.9988	0.000358583
-16.7488	0.000347139
-16.4988	0.000350954
-16.2488	0.000354769
-15.9988	0.000354769
-15.7488	0.000354769
-15.4988	0.000362398
-15.2488	0.000358583
-14.9988	0.000354769
-14.7488	0.000362398
-14.4988	0.000362398
-14.2488	0.000362398
-13.9988	0.000358583
-13.7488	0.000366213
-13.4988	0.000362398
-13.2488	0.000362398
-12.9988	0.000362398
-12.7491	0.000366213
-12.4989	0.000362398
-12.2491	0.000362398
-11.9995	0.000358583
-11.7492	0.000362398
-11.4989	0.000362398
-11.2489	0.000362398
-10.9989	0.000362398
-10.7489	0.000366213
-10.4989	0.000366213
-10.2489	0.000366213
-9.99887	0.000366213
-9.74887	0.000366213
-9.49887	0.000366213
-9.24889	0.000366213
-8.99887	0.000366213
-8.74889	0.000362398
-8.49889	0.000366213
-8.24889	0.000366213
-7.99889	0.000366213
-7.74889	0.000366213
-7.49889	0.000366213
-7.24889	0.000377657
-6.9989	0.000373842
-6.74889	0.000373842
-6.4989	0.000370027
-6.2489	0.000370027
-5.9989	0.000373842
-5.7489	0.000366213
-5.4989	0.000366213
-5.24892	0.000370027
-4.9989	0.000370027
-4.74892	0.000366213
-4.49892	0.000370027
-4.24892	0.000370027
-3.99892	0.000370027
-3.74892	0.000373842
-3.49893	0.000370027
-3.24892	0.000370027
-2.99893	0.000366213
-2.74892	0.000366213
-2.49893	0.000366213
-2.24893	0.000366213
-1.99893	0.000370027
-1.74893	0.000366213
-1.49893	0.000366213
-1.24895	0.000373842
-0.998932	0.000370027
-0.748947	0.000370027
-0.498947	0.000370027
-0.248947	0.000370027
0.00105286	0.000377657
0.251053	0.000377657
0.501038	0.000373842
0.751053	0.000370027
1.00104	0.000370027
1.25104	0.000370027
1.50104	0.000370027
1.75104	0.000366213
2.00104	0.000366213
2.25102	0.000370027
2.50104	0.000366213
2.75102	0.000370027
3.00104	0.000370027
3.25102	0.000370027
3.50102	0.000370027
3.75102	0.000373842
4.00102	0.000373842
4.25102	0.000370027
4.50101	0.000370027
4.75102	0.000366213
5.00101	0.000370027
5.25101	0.000366213
5.50101	0.000370027
5.75101	0.000366213
6.00101	0.000370027
6.25099	0.000373842
6.50101	0.000370027
6.75099	0.000370027
7.001	0.000373842
7.25008	0.000370027
7.50014	0.000377657
7.75005	0.000370027
7.99945	0.000377657
8.24998	0.000377657
8.50098	0.000373842
8.75098	0.000366213
9.00098	0.000370027
9.25098	0.000370027
9.50098	0.000366213
9.75098	0.000366213
10.001	0.000366213
10.251	0.000362398
10.501	0.000366213
10.751	0.000366213
11.001	0.000366213
11.251	0.000366213
11.501	0.000366213
11.7504	0.000366213
12.0003	0.000366213
12.251	0.000366213
12.5009	0.000366213
12.751	0.000366213
13.0009	0.000370027
13.251	0.000366213
13.5009	0.000370027
13.7509	0.000366213
14.0009	0.000366213
14.2509	0.000362398
14.5009	0.000366213
14.7509	0.000366213
15.0009	0.000366213
15.2509	0.000362398
15.5009	0.000366213
15.7509	0.000366213
16.0009	0.000366213
16.2509	0.000366213
16.5009	0.000362398
16.7509	0.000366213
16.9999	0.000366213
17.2502	0.000366213
17.4998	0.000366213
17.7501	0.000366213
18.0009	0.000366213
18.2509	0.000362398
18.5009	0.000362398
18.7509	0.000358583
19.0009	0.000354769
19.2509	0.000362398
19.5009	0.000362398
19.7509	0.000362398
20.0009	0.000362398
20.2509	0.000362398
20.5009	0.000366213
20.7509	0.000366213
21.0009	0.000366213
21.2509	0.000366213
21.5009	0.000362398
21.7509	0.000362398
22.0009	0.000362398
22.2509	0.000362398
22.5009	0.000358583
22.7509	0.000358583
23.0009	0.000354769
23.2509	0.000362398
23.5009	0.000354769
23.7509	0.000354769
24.0009	0.000358583
24.2509	0.000354769
24.5009	0.000358583
24.7509	0.000354769
25.0009	0.000354769
25.2509	0.000354769
25.5008	0.000350954
25.7509	0.000350954
26.0008	0.000347139
26.2508	0.000350954
26.5007	0.000354769
26.7508	0.000350954
27.0006	0.000347139
27.2508	0.000354769
27.5008	0.000358583
27.7508	0.000350954
28.0008	0.000350954
28.2508	0.000350954
28.5008	0.000347139
28.7508	0.000343325
29.0008	0.000343325
29.2508	0.000347139
29.5008	0.000343325
29.7508	0.000343325
30.0008	0.000343325
30.2508	0.000343325
30.5008	0.000343325
30.7508	0.000343325
31.0008	0.00033951
31.2508	0.000343325
31.5008	0.00033951
31.7508	0.00033951
32.0008	0.000335695
32.2508	0.000331881
32.5008	0.000335695
32.7508	0.000328066
33.0008	0.000335695
33.2508	0.00033951
33.5008	0.00033951
33.7508	0.00033951
34.0007	0.00033951
34.2507	0.00033951
34.5006	0.00033951
34.7505	0.000335695
35.0006	0.000335695
35.2507	0.000331881
35.5003	0.000324251
35.7508	0.000324251
36.0008	0.000320436
36.2508	0.000320436
36.5008	0.000316622
36.7508	0.000316622
37.0008	0.000316622
37.2508	0.000316622
37.5008	0.000316622
37.7508	0.000316622
38.0008	0.000312807
38.2508	0.000312807
38.5007	0.000316622
38.7507	0.000316622
39.0005	0.000320436
39.2507	0.000320436
39.5007	0.000316622
39.7507	0.000316622
40.0007	0.000316622
40.2507	0.000316622
40.5007	0.000316622
40.7507	0.000316622
41.0007	0.000316622
41.2507	0.000316622
41.5007	0.000305178
41.7507	0.000305178
42.0007	0.000308992
42.2507	0.000316622
42.5007	0.000305178
42.7507	0.000312807
43.0006	0.000312807
43.2507	0.000308992
43.5005	0.000312807
43.7507	0.000305178
44.0007	0.000301363
44.2507	0.000305178
44.5007	0.000301363
44.7507	0.000297548
45.0007	0.000301363
45.2507	0.000305178
45.5007	0.000297548
45.7507	0.000297548
46.0007	0.000289919
46.2507	0.000289919
46.5007	0.000289919
46.7507	0.000286104
47.0007	0.000289919
47.2507	0.000289919
47.5007	0.000282289
47.7507	0.000289919
48.0007	0.000289919
48.2507	0.000286104
48.5007	0.000289919
48.7507	0.000286104
49.0007	0.000282289
49.2507	0.000278475
49.5007	0.00027466
49.7507	0.000278475
50.0007	0.00027466
50.2507	0.00027466
50.4997	0.000267031
50.7493	0.000267031
50.9996	0.000267031
51.2506	0.000267031
51.5006	0.000267031
51.7506	0.000267031
52.0006	0.000267031
52.2506	0.000267031
52.5006	0.000263216
52.7506	0.000263216
53.0006	0.000263216
53.2506	0.000259401
53.5006	0.000263216
53.7506	0.000259401
54.0006	0.000263216
54.2506	0.000259401
54.5006	0.000259401
54.7506	0.000255587
55.0006	0.000255587
55.2506	0.000259401
55.4992	0.000259401
55.7506	0.000255587
56.0006	0.000251772
56.2506	0.000251772
56.5006	0.000240327
56.7506	0.000236512
57.0006	0.000236512
57.2506	0.000236512
57.5006	0.000236512
57.7506	0.000236512
58.0006	0.000236512
58.2506	0.000240327
58.5006	0.000240327
58.7506	0.000236512
59.0006	0.000228883
59.2506	0.000217439
59.5006	0.000217439
59.7506	0.000217439
60.0006	0.000209809
60.2506	0.00020218
60.5006	0.000198365
60.7506	0.00019455
61.0006	0.00019455
61.2506	0.000190736
61.5006	0.00019455
61.7506	0.000183106
62.0006	0.000183106
62.2506	0.000171662
62.5006	0.000175477
62.7506	0.000175477
63.0006	0.000175477
63.2506	0.000167848
63.5006	0.000164033
63.7506	0.000156404
64.0005	0.000148774
64.2505	0.000144959
64.5005	0.00013733
64.7505	0.00013733
65.0005	0.000129701
65.2505	0.000125886
65.5005	0.000118256
65.7504	0.000114441
66.0003	0.000118256
66.2505	0.000110627
66.5005	0.000110627
66.7505	0.000102997
67.0005	9.92E-05
67.2505	9.92E-05
67.5005	9.54E-05
67.7505	9.54E-05
68.0005	8.77E-05
68.2505	8.01E-05
68.5005	8.01E-05
68.7505	7.63E-05
69.0005	7.25E-05
69.2505	7.25E-05
69.5005	7.25E-05
69.7505	7.25E-05
70.0005	6.49E-05
70.2505	6.87E-05
70.5005	6.87E-05
70.7505	5.72E-05
71.0005	5.72E-05
71.2505	5.72E-05
71.5005	5.34E-05
71.7505	4.96E-05
72.0005	4.96E-05
72.2505	4.96E-05
72.5005	4.96E-05
72.7505	4.20E-05
73.0005	4.58E-05
73.2505	4.20E-05
73.5005	3.81E-05
73.7505	4.20E-05
74.0005	4.20E-05
74.2505	3.43E-05
74.5005	3.81E-05
74.7505	3.81E-05
75.0005	3.43E-05
75.2505	3.43E-05
75.5005	3.05E-05
75.7505	3.05E-05
76.0005	2.67E-05
76.2505	3.05E-05
76.5005	2.67E-05
76.7505	3.05E-05
77.0005	3.05E-05
77.2505	3.05E-05
77.5005	3.05E-05
77.7504	2.67E-05
78.0004	2.67E-05
78.2504	2.67E-05
78.5004	2.29E-05
78.7504	2.29E-05
79.0004	2.29E-05
79.2504	2.29E-05
79.5004	2.29E-05
79.7504	2.29E-05
80.0004	1.91E-05
80.2504	2.29E-05
80.5004	2.29E-05
80.7504	2.29E-05
81.0004	2.29E-05
81.2504	2.29E-05
81.5004	1.53E-05
81.7504	1.91E-05
82.0004	1.53E-05
82.2504	1.53E-05
82.5004	1.14E-05
82.7504	1.14E-05
83.0004	1.14E-05
83.2504	7.63E-06
83.5004	1.14E-05
83.7504	1.14E-05
84.0004	7.63E-06
84.2504	7.63E-06
84.5004	1.14E-05
84.75	1.14E-05
85.0004	1.53E-05
85.2504	1.14E-05
85.5004	1.53E-05
85.7504	1.53E-05
86.0004	1.14E-05
86.2504	1.14E-05
86.5004	1.14E-05
86.7504	1.53E-05
87.0004	1.14E-05
87.2504	1.14E-05
87.5004	1.14E-05
87.7504	1.14E-05
88.0004	1.14E-05
88.2504	7.63E-06
88.5004	1.14E-05
88.7504	7.63E-06
89.0004	7.63E-06
89.2504	7.63E-06
89.5004	1.14E-05
89.7504	3.81E-06
90.0004	1.14E-05
90.2503	7.63E-06
90.5003	7.63E-06
90.7503	7.63E-06
91.0003	3.81E-06
91.2503	3.81E-06
91.5003	7.63E-06
91.7503	7.63E-06
92.0003	7.63E-06
92.2503	7.63E-06
92.5003	7.63E-06
92.7503	7.63E-06
93.0003	7.63E-06
93.2503	1.14E-05
93.5003	7.63E-06
93.7503	7.63E-06
94.0003	3.81E-06
94.2503	7.63E-06
94.5003	3.81E-06
94.7503	3.81E-06
95.0003	3.81E-06
95.2503	0
95.5003	3.81E-06
95.7503	7.63E-06
96.0003	3.81E-06
96.2503	3.81E-06
96.5003	3.81E-06
96.7503	0
97.0003	3.81E-06
97.2503	3.81E-06
97.5003	3.81E-06
97.7503	7.63E-06
98.0003	3.81E-06
98.2503	3.81E-06
98.5003	3.81E-06
98.7503	3.81E-06
99.0003	0
99.2503	3.81E-06
99.5003	1.14E-05
99.7503	3.81E-06
100	3.81E-06
100.25	0
100.5	7.63E-06
100.75	7.63E-06
101	7.63E-06
101.25	3.81E-06
101.5	3.81E-06
101.75	0
102	7.63E-06
102.25	3.81E-06
102.5	7.63E-06
102.75	3.81E-06
103	0
103.25	7.63E-06
103.5	7.63E-06
103.75	3.81E-06
104	3.81E-06
104.25	0
104.5	3.81E-06
104.75	3.81E-06
105	3.81E-06
105.25	7.63E-06
105.5	3.81E-06
105.75	7.63E-06
106	3.81E-06
106.25	3.81E-06
106.5	3.81E-06
106.75	3.81E-06
107	3.81E-06
107.25	0
107.5	3.81E-06
107.75	0
108	7.63E-06
108.25	3.81E-06
108.5	3.81E-06
108.75	3.81E-06
109	0
109.25	3.81E-06
109.5	3.81E-06
109.75	3.81E-06
110	0
110.25	3.81E-06
110.5	0
110.75	7.63E-06
111	0
111.25	3.81E-06
111.5	7.63E-06
111.75	7.63E-06
112	1.53E-05
112.25	1.53E-05
112.5	1.53E-05
112.75	1.53E-05
113	1.53E-05
113.25	1.53E-05
113.5	1.14E-05
113.75	1.53E-05
114	1.53E-05
114.25	1.91E-05
114.5	1.91E-05
114.75	1.53E-05
115	1.91E-05
115.25	2.29E-05
115.5	1.91E-05
115.75	1.91E-05
116	1.91E-05
116.25	2.29E-05
116.5	2.29E-05
116.75	2.29E-05
117	2.29E-05
117.25	2.29E-05
117.5	2.29E-05
117.75	2.29E-05
117.999	2.29E-05
118.249	2.29E-05
118.499	2.29E-05
118.75	2.67E-05
119	2.67E-05
119.25	2.29E-05
119.5	2.29E-05
119.75	2.67E-05
120	2.67E-05
120.25	2.67E-05
120.5	2.29E-05
120.75	1.91E-05
121	1.53E-05
121.25	1.14E-05
121.5	7.63E-06
121.75	3.81E-06
122	1.14E-05
122.25	7.63E-06
122.5	7.63E-06
122.75	7.63E-06
123	3.81E-06
123.25	7.63E-06
123.5	3.81E-06
123.75	7.63E-06
124	7.63E-06
124.25	7.63E-06
124.5	7.63E-06
124.75	7.63E-06
125	1.14E-05
125.25	7.63E-06
125.5	7.63E-06
125.75	7.63E-06
126	1.14E-05
126.25	1.14E-05
126.5	1.14E-05
126.75	7.63E-06
127	7.63E-06
127.25	1.14E-05
127.5	1.14E-05
127.75	7.63E-06
128	7.63E-06
128.25	1.14E-05
128.5	7.63E-06
128.75	1.14E-05
129	7.63E-06
129.25	7.63E-06
129.5	7.63E-06
129.75	7.63E-06
130	1.14E-05
130.25	1.14E-05
130.5	7.63E-06
130.749	7.63E-06
131	7.63E-06
131.25	3.81E-06
131.5	1.14E-05
131.75	7.63E-06
132	1.14E-05
132.25	1.14E-05
132.5	7.63E-06
132.75	7.63E-06
133	7.63E-06
133.25	7.63E-06
133.5	7.63E-06
133.75	7.63E-06
134	1.14E-05
134.25	1.14E-05
134.5	1.14E-05
134.75	1.14E-05
135	1.14E-05
135	1.14E-05
-48.9987	0.000244142
-48.7487	0.000240327
-48.4987	0.000240327
-48.2487	0.000232697
-47.9994	0.000228883
-47.7496	0.000225068
-47.4987	0.000221253
-47.2487	0.000213624
-46.9987	0.000213624
-46.7487	0.000209809
-46.4987	0.000209809
-46.2487	0.000209809
-45.9987	0.000209809
-45.7487	0.000205995
-45.4987	0.000205995
-45.2487	0.000205995
-44.9987	0.00020218
-44.7487	0.00020218
-44.4987	0.00020218
-44.2487	0.000198365
-43.9987	0.00020218
-43.7487	0.00019455
-43.4987	0.000198365
-43.2487	0.000198365
-42.9987	0.00020218
-42.7487	0.000198365
-42.4987	0.000198365
-42.2487	0.00019455
-41.9987	0.00020218
-41.7487	0.000198365
-41.4987	0.000198365
-41.2487	0.000198365
-40.9987	0.00019455
-40.7487	0.00019455
-40.4987	0.00020218
-40.2487	0.000198365
-39.9989	0.000198365
-39.7489	0.000198365
-39.499	0.000198365
-39.2488	0.000198365
-38.9988	0.000198365
-38.7488	0.000198365
-38.4988	0.00020218
-38.2488	0.00020218
-37.9988	0.00020218
-37.7488	0.00019455
-37.4988	0.000198365
-37.2488	0.000198365
-36.9988	0.000198365
-36.7488	0.00020218
-36.4988	0.00020218
-36.2488	0.00020218
-35.9988	0.000198365
-35.7488	0.000198365
-35.4988	0.00020218
-35.2488	0.000198365
-34.9988	0.00020218
-34.7488	0.00020218
-34.4988	0.00020218
-34.2488	0.000205995
-33.9988	0.000205995
-33.7488	0.00020218
-33.4988	0.000205995
-33.2488	0.000209809
-32.9988	0.000205995
-32.7488	0.000205995
-32.4988	0.000205995
-32.2488	0.000205995
-31.9988	0.00020218
-31.7488	0.00020218
-31.4988	0.000205995
-31.2488	0.000205995
-30.9988	0.000205995
-30.7488	0.000209809
-30.4988	0.000205995
-30.2488	0.000209809
-29.9988	0.000209809
-29.7488	0.000209809
-29.4988	0.000209809
-29.2488	0.000209809
-28.9988	0.000209809
-28.7489	0.000209809
-28.4991	0.000209809
-28.249	0.000209809
-27.9988	0.000209809
-27.7489	0.000209809
-27.4989	0.000209809
-27.2489	0.000213624
-26.9989	0.000209809
-26.7489	0.000209809
-26.4989	0.000213624
-26.2489	0.000213624
-25.9989	0.000217439
-25.7489	0.000213624
-25.4989	0.000217439
-25.2489	0.000217439
-24.9989	0.000213624
-24.7489	0.000217439
-24.4989	0.000217439
-24.2489	0.000217439
-23.9989	0.000217439
-23.7489	0.000217439
-23.4989	0.000217439
-23.2489	0.000213624
-22.9989	0.000221253
-22.7489	0.000221253
-22.4989	0.000221253
-22.2489	0.000225068
-21.9989	0.000225068
-21.7489	0.000228883
-21.4989	0.000232697
-21.2489	0.000228883
-20.9989	0.000228883
-20.7489	0.000228883
-20.4989	0.000228883
-20.2489	0.000225068
-19.9989	0.000225068
-19.7489	0.000232697
-19.4989	0.000225068
-19.2489	0.000228883
-18.9989	0.000228883
-18.7489	0.000228883
-18.4989	0.000232697
-18.2489	0.000236512
-17.9989	0.000228883
-17.7489	0.000228883
-17.4989	0.000236512
-17.2489	0.000228883
-16.9989	0.000232697
-16.7489	0.000232697
-16.4989	0.000236512
-16.2489	0.000236512
-15.9989	0.000236512
-15.7489	0.000232697
-15.4989	0.000236512
-15.2489	0.000236512
-14.9998	0.000232697
-14.7489	0.000240327
-14.499	0.000236512
-14.2489	0.000236512
-13.999	0.000236512
-13.749	0.000236512
-13.499	0.000240327
-13.249	0.000236512
-12.999	0.000240327
-12.749	0.000236512
-12.499	0.000244142
-12.249	0.000240327
-11.999	0.000236512
-11.749	0.000240327
-11.4993	0.000240327
-11.2493	0.000240327
-10.9992	0.000240327
-10.7497	0.000244142
-10.4997	0.000244142
-10.2498	0.000240327
-9.99994	0.000240327
-9.74998	0.000236512
-9.50047	0.000244142
-9.24899	0.000240327
-8.99899	0.000240327
-8.74901	0.000244142
-8.49899	0.000247957
-8.24901	0.000244142
-7.999	0.000247957
-7.74901	0.000244142
-7.499	0.000244142
-7.24901	0.000247957
-6.99902	0.000247957
-6.74902	0.000247957
-6.49909	0.000244142
-6.24902	0.000247957
-5.99903	0.000244142
-5.74913	0.000244142
-5.49908	0.000247957
-5.24929	0.000247957
-4.99902	0.000244142
-4.74903	0.000240327
-4.49903	0.000244142
-4.24904	0.000247957
-3.99903	0.000247957
-3.74904	0.000247957
-3.49904	0.000247957
-3.24904	0.000247957
-2.99904	0.000247957
-2.74905	0.000244142
-2.49905	0.000251772
-2.24905	0.000251772
-1.99905	0.000255587
-1.74905	0.000247957
-1.49905	0.000247957
-1.24905	0.000247957
-0.999062	0.000247957
-0.749062	0.000244142
-0.499062	0.000251772
-0.249069	0.000251772
0.000938416	0.000251772
0.250931	0.000247957
0.500931	0.000251772
0.750923	0.000255587
1.00093	0.000251772
1.25092	0.000255587
1.50092	0.000259401
1.75092	0.000259401
2.00092	0.000255587
2.25092	0.000251772
2.50092	0.000259401
2.75092	0.000255587
3.00091	0.000251772
3.25092	0.000255587
3.50091	0.000259401
3.7509	0.000251772
4.00091	0.000255587
4.2509	0.000259401
4.5009	0.000259401
4.75089	0.000259401
5.0009	0.000259401
5.25089	0.000263216
5.50089	0.000259401
5.75089	0.000263216
6.00089	0.000263216
6.25089	0.000259401
6.50088	0.000263216
6.75089	0.000263216
7.00088	0.000263216
7.25089	0.000263216
7.50088	0.000259401
7.75087	0.000263216
8.00087	0.000259401
8.25087	0.000263216
8.50087	0.000263216
8.75086	0.000263216
9.00087	0.000263216
9.25086	0.000263216
9.50086	0.000263216
9.75086	0.000263216
10.0009	0.000263216
10.2509	0.000259401
10.5008	0.000263216
10.7509	0.000267031
11.0008	0.000267031
11.2508	0.000263216
11.5008	0.000267031
11.7508	0.000267031
12.0008	0.000267031
12.2508	0.000267031
12.5008	0.000267031
12.7508	0.000267031
13.0008	0.000263216
13.2508	0.000267031
13.5008	0.000263216
13.7508	0.000267031
14.0008	0.000267031
14.2508	0.000263216
14.5008	0.000267031
14.7508	0.000267031
15.0008	0.000267031
15.2508	0.000263216
15.5008	0.000267031
15.7508	0.000270845
16.0008	0.000270845
16.2508	0.000267031
16.5008	0.000267031
16.7508	0.000263216
17.0008	0.000263216
17.25	0.000267031
17.5001	0.000267031
17.7497	0.000267031
18.0002	0.000267031
18.2508	0.000270845
18.5008	0.00027466
18.7508	0.000270845
19.0008	0.000270845
19.2508	0.00027466
19.5008	0.000270845
19.7508	0.000267031
20.0008	0.000267031
20.2508	0.000270845
20.5008	0.000267031
20.7508	0.000267031
21.0008	0.000267031
21.2508	0.000267031
21.5008	0.000263216
21.7508	0.000263216
22.0008	0.000263216
22.2508	0.000263216
22.5008	0.000267031
22.7508	0.000267031
23.0008	0.000267031
23.2508	0.000270845
23.4992	0.000267031
23.7508	0.00027466
24.0007	0.000278475
24.2507	0.000278475
24.5007	0.00027466
24.7507	0.000278475
25.0007	0.000278475
25.2507	0.000282289
25.5007	0.00027466
25.7507	0.000278475
26.0007	0.00027466
26.2507	0.000282289
26.5007	0.000278475
26.7507	0.00027466
27.0007	0.000278475
27.2507	0.000282289
27.5007	0.000282289
27.7507	0.000278475
28.0007	0.000282289
28.2507	0.000286104
28.5007	0.000282289
28.7507	0.000282289
29.0007	0.000282289
29.2507	0.000282289
29.5007	0.000282289
29.7507	0.000286104
30.0007	0.000286104
30.2507	0.000278475
30.5007	0.000282289
30.7507	0.000282289
31.0007	0.000282289
31.2507	0.000282289
31.5007	0.000278475
31.7507	0.000282289
32.0007	0.000278475
32.2507	0.000282289
32.5007	0.000286104
32.7507	0.000286104
33.0001	0.000289919
33.2503	0.000289919
33.5001	0.000289919
33.7501	0.000289919
34.0007	0.000286104
34.2507	0.000289919
34.5007	0.000289919
34.7507	0.000289919
35.0007	0.000289919
35.2507	0.000289919
35.5007	0.000289919
35.7507	0.000289919
36.0006	0.000289919
36.2506	0.000289919
36.5006	0.000293734
36.7506	0.000289919
37.0006	0.000293734
37.2506	0.000293734
37.5006	0.000289919
37.7506	0.000297548
38.0006	0.000297548
38.2506	0.000301363
38.5006	0.000301363
38.7506	0.000305178
39.0006	0.000305178
39.2506	0.000308992
39.5006	0.000308992
39.7506	0.000312807
40.0006	0.000312807
40.2506	0.000316622
40.5006	0.000316622
40.7488	0.000316622
41.0006	0.000316622
41.2506	0.000316622
41.5006	0.000316622
41.7506	0.000316622
42.0006	0.000316622
42.2506	0.000320436
42.5006	0.000324251
42.7506	0.000331881
43.0006	0.000328066
43.2506	0.000331881
43.5006	0.000331881
43.7506	0.00033951
44.0006	0.000335695
44.2506	0.000335695
44.5006	0.000335695
44.7506	0.000331881
45.0006	0.000331881
45.2506	0.000335695
45.5006	0.00033951
45.7506	0.000347139
46.0006	0.000350954
46.2506	0.000350954
46.5006	0.000350954
46.7506	0.000354769
47.0006	0.000366213
47.2506	0.000366213
47.5006	0.000373842
47.7506	0.000373842
48.0006	0.000377657
48.2504	0.000381472
48.5003	0.000377657
48.7503	0.000385286
49.0005	0.000385286
49.2505	0.000385286
49.5005	0.000389101
49.7505	0.000392916
50.0005	0.00040436
50.2505	0.000411989
50.5005	0.000419619
50.7505	0.000419619
51.0005	0.000427248
51.2505	0.000431063
51.5005	0.000434877
51.7505	0.000442507
52.0005	0.000446321
52.2505	0.000450136
52.5005	0.000450136
52.7505	0.000453951
53.0005	0.000453951
53.2505	0.00046158
53.5005	0.00046921
53.7505	0.000480654
54.0005	0.000499729
54.2505	0.000507358
54.5005	0.000522617
54.7505	0.000530247
55.0005	0.000530247
55.2505	0.000537876
55.5005	0.000553135
55.7504	0.000553135
56.0005	0.000572208
56.2505	0.000564579
56.5005	0.000579838
56.7505	0.000587467
57.0005	0.000602726
57.2505	0.000606541
57.5005	0.00061417
57.7505	0.000617985
58.0005	0.000633243
58.2505	0.000637058
58.5005	0.000659946
58.7505	0.000675205
59.0005	0.000682835
59.2505	0.000686649
59.5005	0.000690464
59.7505	0.000709537
60.0005	0.000732426
60.2505	0.00073624
60.5005	0.000759128
60.7505	0.000766758
61.0005	0.000770573
61.2501	0.000789646
61.4997	0.000782017
61.7497	0.00080109
61.9996	0.00080109
62.2495	0.000827793
62.4994	0.000843052
62.7504	0.000869755
63.0004	0.000877384
63.2504	0.000904087
63.5004	0.000896458
63.7504	0.000896458
64.0004	0.000892643
64.2504	0.000877384
64.5004	0.000881199
64.7504	0.000896458
65.0004	0.000938419
65.2504	0.000972752
65.5004	0.00102616
65.7504	0.00103761
66.0004	0.00102616
66.2504	0.00102998
66.5004	0.000995643
66.7504	0.000999458
67.0004	0.0010109
67.2504	0.00104905
67.5004	0.00108338
67.7504	0.00110627
68.0004	0.00112916
68.2504	0.00114823
68.5004	0.00119782
68.7504	0.00122071
69.0004	0.00127793
69.2504	0.00127793
69.5004	0.00129319
69.7504	0.00128556
70.0004	0.00129319
70.2504	0.00130463
70.5004	0.00130845
70.7504	0.00132371
71.0004	0.00135422
71.2504	0.00140382
71.5004	0.00144959
71.7504	0.0014763
72.0004	0.001503
72.2504	0.00151444
72.5004	0.0015564
72.7504	0.00159837
73.0004	0.00162507
73.2504	0.00160599
73.5004	0.0015564
73.7504	0.00153733
74.0004	0.00156785
74.2504	0.00158692
74.5004	0.00156403
74.7504	0.0015564
75.0004	0.00160981
75.2503	0.00165177
75.5003	0.00161744
75.7503	0.0016327
76.0003	0.00161744
76.2503	0.00157548
76.5003	0.00146104
76.7503	0.00142289
77.0003	0.00146485
77.2503	0.0015297
77.5003	0.00151063
77.7503	0.00143815
78.0003	0.00131989
78.2503	0.00129319
78.5003	0.00133134
78.7503	0.00135041
79.0003	0.00136567
79.2503	0.00136948
79.5003	0.00140763
79.7503	0.0013466
80.0003	0.00123215
80.2503	0.0011139
80.5003	0.00103379
80.7503	0.00102616
81.0003	0.00104523
81.2503	0.00103379
81.5003	0.00100327
81.7503	0.000988014
82.0003	0.000999458
82.2503	0.00100709
82.5003	0.00100709
82.7503	0.00097657
83.0003	0.000915531
83.2503	0.000869755
83.5003	0.000846867
83.7503	0.00080872
84.0003	0.000751499
84.2503	0.000690464
84.5003	0.000621799
84.7503	0.000480654
85.0003	0.000312807
85.2503	0.000156404
85.5003	7.63E-05
85.7503	4.96E-05
86.0003	2.29E-05
86.2503	1.91E-05
86.5003	1.14E-05
86.7503	1.14E-05
87.0002	1.14E-05
87.2503	1.14E-05
87.5003	7.63E-06
87.7503	1.14E-05
88.0002	7.63E-06
88.2502	7.63E-06
88.5002	7.63E-06
88.7502	1.14E-05
89.0002	1.14E-05
89.249	1.14E-05
89.5002	1.14E-05
89.7502	1.14E-05
90.0002	1.14E-05
90.2502	1.14E-05
90.5002	7.63E-06
90.7502	3.81E-06
91.0002	1.14E-05
91.2502	7.63E-06
91.5002	0
91.7502	7.63E-06
92.0002	7.63E-06
92.2502	7.63E-06
92.5002	7.63E-06
92.7502	3.81E-06
93.0002	3.81E-06
93.2502	7.63E-06
93.5002	7.63E-06
93.7485	1.14E-05
94.0002	7.63E-06
94.2502	1.14E-05
94.5002	1.14E-05
94.7502	7.63E-06
95.0002	1.53E-05
95.2502	1.53E-05
95.5002	1.14E-05
95.7502	1.14E-05
96.0002	1.91E-05
96.2502	2.29E-05
96.5002	2.29E-05
96.7502	3.05E-05
97.0002	3.05E-05
97.2502	3.43E-05
97.5002	3.05E-05
97.7502	2.67E-05
98.0002	2.29E-05
98.2502	1.91E-05
98.5002	1.91E-05
98.7502	1.91E-05
99.0002	1.53E-05
99.2502	1.91E-05
99.5002	1.53E-05
99.7502	1.53E-05
100	1.53E-05
100.25	1.91E-05
100.5	1.91E-05
100.75	1.91E-05
101	1.91E-05
101.25	1.91E-05
101.5	1.91E-05
101.75	2.29E-05
102	2.29E-05
102.25	2.29E-05
102.5	2.29E-05
102.75	2.29E-05
103	2.29E-05
103.25	2.29E-05
103.5	2.29E-05
103.75	2.29E-05
104	2.29E-05
104.25	2.29E-05
104.5	2.29E-05
104.75	2.67E-05
105	2.29E-05
105.25	2.67E-05
105.5	3.05E-05
105.75	3.43E-05
106	3.81E-05
106.25	3.05E-05
106.5	3.43E-05
106.75	3.43E-05
107	3.81E-05
107.25	4.20E-05
107.5	4.96E-05
107.75	4.58E-05
108	4.20E-05
108.25	3.81E-05
108.5	2.67E-05
108.75	4.20E-05
109	6.10E-05
109.25	9.92E-05
109.5	0.000129701
109.75	0.000129701
110	9.92E-05
110.25	3.81E-05
110.5	1.14E-05
110.75	7.63E-06
111	7.63E-06
111.25	7.63E-06
111.5	1.14E-05
111.75	1.14E-05
112	1.14E-05
112.25	1.14E-05
112.5	1.14E-05
112.75	1.14E-05
113	1.14E-05
113.25	1.14E-05
113.5	1.14E-05
113.75	1.53E-05
113.999	1.14E-05
114.249	1.53E-05
114.5	7.63E-06
114.75	1.14E-05
115	1.53E-05
115.25	1.14E-05
115.5	1.14E-05
115.75	1.14E-05
116	1.14E-05
116.25	1.14E-05
116.5	1.53E-05
116.75	1.91E-05
117	1.14E-05
117.25	1.53E-05
117.5	1.14E-05
117.75	1.14E-05
118	1.53E-05
118.25	1.14E-05
118.5	1.53E-05
118.75	1.53E-05
119	1.53E-05
119.25	1.14E-05
119.5	1.53E-05
119.75	1.14E-05
119.999	1.14E-05
120	1.14E-05
-63.9987	0.000247957
-63.7487	0.000236512
-63.4987	0.000225068
-63.2487	0.000209809
-62.9987	0.00020218
-62.7487	0.00019455
-62.5	0.000186921
-62.2492	0.000175477
-62.0001	0.000164033
-61.7487	0.000156404
-61.4987	0.000156404
-61.2487	0.000148774
-60.9987	0.000141145
-60.7487	0.000129701
-60.4987	0.000129701
-60.2487	0.000122071
-59.9987	0.000118256
-59.7487	0.000110627
-59.4987	0.000110627
-59.2487	0.000102997
-58.9987	0.000102997
-58.7487	0.000102997
-58.4987	9.54E-05
-58.2487	9.54E-05
-57.9987	8.39E-05
-57.7487	8.77E-05
-57.4987	8.39E-05
-57.2487	8.39E-05
-56.9987	8.01E-05
-56.7487	7.63E-05
-56.4987	7.63E-05
-56.2487	7.63E-05
-55.9987	7.25E-05
-55.7487	6.87E-05
-55.4987	6.87E-05
-55.2487	6.87E-05
-54.9988	6.49E-05
-54.7487	6.10E-05
-54.4988	6.10E-05
-54.2488	6.10E-05
-53.9988	5.34E-05
-53.7488	5.72E-05
-53.4988	5.34E-05
-53.2488	4.96E-05
-52.9988	4.96E-05
-52.7488	5.34E-05
-52.4988	4.96E-05
-52.2488	4.96E-05
-51.9988	4.96E-05
-51.7488	4.96E-05
-51.4988	4.20E-05
-51.2488	4.20E-05
-50.9988	4.20E-05
-50.7488	4.58E-05
-50.4988	4.20E-05
-50.2488	4.20E-05
-49.9988	4.20E-05
-49.7488	3.81E-05
-49.4988	3.81E-05
-49.2488	3.81E-05
-48.9988	3.43E-05
-48.7488	3.43E-05
-48.4988	3.81E-05
-48.2488	3.43E-05
-48.0003	3.43E-05
-47.7488	3.05E-05
-47.4988	3.43E-05
-47.2488	3.05E-05
-46.9988	3.43E-05
-46.7488	3.05E-05
-46.4988	3.43E-05
-46.2488	3.05E-05
-45.9988	3.05E-05
-45.7488	2.67E-05
-45.4988	2.29E-05
-45.2488	3.05E-05
-44.9988	3.05E-05
-44.7495	2.67E-05
-44.4996	2.67E-05
-44.2492	2.67E-05
-43.9997	3.05E-05
-43.7491	2.67E-05
-43.4998	2.67E-05
-43.2499	2.67E-05
-42.9988	3.05E-05
-42.7489	2.67E-05
-42.4989	2.67E-05
-42.2489	2.67E-05
-41.9989	2.67E-05
-41.7489	3.05E-05
-41.4989	2.67E-05
-41.2489	2.29E-05
-40.9989	2.67E-05
-40.7489	2.29E-05
-40.4989	2.67E-05
-40.2489	2.67E-05
-39.9989	2.29E-05
-39.7489	2.29E-05
-39.4989	2.29E-05
-39.2489	2.67E-05
-38.9989	2.67E-05
-38.7489	2.29E-05
-38.4989	2.67E-05
-38.2489	2.67E-05
-37.9989	2.67E-05
-37.7489	2.67E-05
-37.4989	2.29E-05
-37.2489	2.67E-05
-36.9989	2.29E-05
-36.7489	2.67E-05
-36.4989	2.67E-05
-36.2489	2.29E-05
-35.9989	2.29E-05
-35.7489	2.67E-05
-35.4989	2.29E-05
-35.2489	2.29E-05
-34.9989	2.67E-05
-34.7489	2.29E-05
-34.4992	2.29E-05
-34.2489	2.29E-05
-33.9989	2.29E-05
-33.7489	2.67E-05
-33.4989	2.29E-05
-33.2489	2.67E-05
-32.9989	2.29E-05
-32.7489	2.29E-05
-32.4989	2.29E-05
-32.2489	2.29E-05
-31.9989	2.67E-05
-31.7489	2.29E-05
-31.4989	2.29E-05
-31.2489	2.67E-05
-30.9993	2.29E-05
-30.7494	2.29E-05
-30.4992	2.29E-05
-30.2492	2.29E-05
-29.9996	2.29E-05
-29.7489	2.29E-05
-29.499	2.67E-05
-29.2489	2.67E-05
-28.999	2.29E-05
-28.749	2.29E-05
-28.499	2.29E-05
-28.249	2.29E-05
-27.999	2.29E-05
-27.749	2.29E-05
-27.499	2.29E-05
-27.249	2.29E-05
-26.999	2.29E-05
-26.749	2.29E-05
-26.499	2.29E-05
-26.249	2.67E-05
-25.999	2.29E-05
-25.749	2.29E-05
-25.499	2.29E-05
-25.249	2.29E-05
-24.999	2.29E-05
-24.749	2.29E-05
-24.4998	2.29E-05
-24.249	2.29E-05
-23.999	2.29E-05
-23.749	2.67E-05
-23.499	2.67E-05
-23.249	2.29E-05
-22.999	2.29E-05
-22.749	2.29E-05
-22.499	2.29E-05
-22.249	2.29E-05
-21.999	2.67E-05
-21.749	2.29E-05
-21.499	2.29E-05
-21.249	2.29E-05
-20.999	2.29E-05
-20.749	2.29E-05
-20.4992	2.29E-05
-20.2496	2.29E-05
-19.9998	2.29E-05
-19.7497	2.29E-05
-19.5	2.29E-05
-19.2501	2.29E-05
-19.0002	2.29E-05
-18.7505	2.29E-05
-18.4993	2.67E-05
-18.249	2.29E-05
-17.999	2.29E-05
-17.749	2.67E-05
-17.4991	2.67E-05
-17.249	2.29E-05
-16.9991	2.29E-05
-16.749	2.29E-05
-16.4991	2.67E-05
-16.2491	2.29E-05
-15.9991	2.29E-05
-15.7491	2.29E-05
-15.4991	2.29E-05
-15.2491	2.29E-05
-14.9991	2.29E-05
-14.7491	2.29E-05
-14.4991	2.29E-05
-14.2502	2.29E-05
-13.9991	2.29E-05
-13.7491	2.29E-05
-13.4991	2.67E-05
-13.2491	2.67E-05
-12.9991	2.29E-05
-12.7491	2.29E-05
-12.4991	2.67E-05
-12.2491	2.29E-05
-11.9991	2.67E-05
-11.7491	2.29E-05
-11.4991	2.29E-05
-11.2491	2.67E-05
-10.9991	2.29E-05
-10.7491	2.29E-05
-10.4991	2.29E-05
-10.2491	2.29E-05
-9.9991	2.29E-05
-9.74911	2.29E-05
-9.49911	2.29E-05
-9.24911	2.67E-05
-8.99911	2.29E-05
-8.74911	2.29E-05
-8.49912	2.29E-05
-8.24911	2.29E-05
-7.99912	2.67E-05
-7.74911	2.29E-05
-7.49912	2.29E-05
-7.24913	2.29E-05
-6.99913	2.29E-05
-6.74913	2.29E-05
-6.49913	2.29E-05
-6.24914	2.29E-05
-5.99913	2.29E-05
-5.74914	2.29E-05
-5.49914	2.29E-05
-5.25005	2.29E-05
-4.99915	2.67E-05
-4.74915	2.67E-05
-4.49915	2.67E-05
-4.24915	2.29E-05
-3.99915	2.29E-05
-3.74915	2.67E-05
-3.49915	2.29E-05
-3.24916	2.29E-05
-2.99982	2.67E-05
-2.74917	2.29E-05
-2.49916	2.67E-05
-2.24917	2.29E-05
-1.99916	2.29E-05
-1.74917	2.29E-05
-1.49917	2.29E-05
-1.24918	2.29E-05
-0.999176	2.67E-05
-0.749176	2.67E-05
-0.499184	2.67E-05
-0.249176	2.29E-05
0.000816345	2.67E-05
0.250816	2.67E-05
0.500809	2.29E-05
0.750816	2.67E-05
1.00081	2.29E-05
1.2508	2.29E-05
1.50081	2.67E-05
1.7508	2.67E-05
2.0008	2.29E-05
2.2508	2.67E-05
2.5008	2.67E-05
2.75079	2.67E-05
3.00079	2.67E-05
3.25079	2.67E-05
3.49987	2.29E-05
3.75079	2.67E-05
4.00079	2.29E-05
4.25079	2.67E-05
4.50078	2.67E-05
4.75079	3.05E-05
5.00078	2.29E-05
5.25077	2.29E-05
5.50078	2.29E-05
5.75077	2.67E-05
6.00077	2.29E-05
6.25076	2.29E-05
6.50077	2.67E-05
6.75076	2.67E-05
7.00077	2.67E-05
7.25076	2.67E-05
7.50076	3.05E-05
7.75076	2.67E-05
8.00076	2.67E-05
8.25076	3.05E-05
8.50075	2.67E-05
8.75076	2.67E-05
9.00075	2.67E-05
9.25074	3.05E-05
9.50075	3.05E-05
9.75074	3.05E-05
10.0007	3.05E-05
10.2507	2.67E-05
10.5007	3.05E-05
10.7507	2.67E-05
11.0007	3.05E-05
11.2507	3.05E-05
11.5007	3.05E-05
11.7507	2.67E-05
12.0007	3.05E-05
12.2507	2.67E-05
12.5007	2.67E-05
12.7507	3.05E-05
13.0007	2.29E-05
13.2507	2.67E-05
13.5007	2.67E-05
13.7507	2.67E-05
14.0007	3.05E-05
14.2507	2.67E-05
14.5007	3.05E-05
14.7507	3.05E-05
15.0007	3.05E-05
15.2507	2.67E-05
15.5007	3.05E-05
15.7507	2.67E-05
16.0007	3.05E-05
16.2507	2.67E-05
16.5007	3.05E-05
16.7507	3.05E-05
17.0007	2.67E-05
17.2507	3.05E-05
17.5007	2.67E-05
17.7507	2.67E-05
18.0007	3.05E-05
18.2507	3.05E-05
18.5007	3.43E-05
18.7507	3.43E-05
19.0007	3.05E-05
19.2507	3.05E-05
19.5007	3.05E-05
19.7505	3.05E-05
20.0007	3.05E-05
20.2507	2.67E-05
20.5007	3.05E-05
20.7507	3.05E-05
21.0006	3.43E-05
21.2506	3.05E-05
21.5006	2.67E-05
21.7506	3.05E-05
22.0006	3.05E-05
22.2506	3.05E-05
22.5006	3.43E-05
22.7506	3.43E-05
23.0006	3.43E-05
23.2499	3.05E-05
23.5006	3.43E-05
23.7506	3.43E-05
24.0006	3.05E-05
24.2506	3.43E-05
24.5006	3.43E-05
24.7506	3.43E-05
25.0006	3.05E-05
25.2506	3.81E-05
25.5006	3.43E-05
25.7506	3.43E-05
26.0006	3.81E-05
26.2506	3.43E-05
26.5006	3.81E-05
26.7506	3.81E-05
27.0006	3.43E-05
27.2506	3.81E-05
27.5006	3.81E-05
27.7506	3.81E-05
28.0006	4.20E-05
28.2506	4.20E-05
28.5006	4.20E-05
28.7506	3.81E-05
29.0006	4.20E-05
29.2506	4.20E-05
29.5006	4.20E-05
29.7506	4.20E-05
30.0006	4.20E-05
30.2506	4.58E-05
30.5006	4.96E-05
30.7506	4.20E-05
31.0006	4.58E-05
31.2506	4.58E-05
31.5006	4.20E-05
31.7506	4.58E-05
32.0006	4.20E-05
32.2506	4.96E-05
32.5006	4.96E-05
32.7506	4.96E-05
33.0006	4.96E-05
33.2506	4.96E-05
33.5006	4.96E-05
33.7506	4.96E-05
34.0005	5.34E-05
34.2505	4.96E-05
34.5005	5.34E-05
34.7505	5.34E-05
35.0005	5.34E-05
35.2505	4.96E-05
35.5005	5.34E-05
35.7505	5.72E-05
36.0005	5.72E-05
36.2505	6.10E-05
36.5005	6.10E-05
36.7505	6.10E-05
37.0005	6.10E-05
37.2488	6.10E-05
37.5005	6.87E-05
37.7505	6.87E-05
38.0005	6.49E-05
38.2505	7.25E-05
38.5005	7.25E-05
38.7505	7.63E-05
39.0005	7.63E-05
39.2505	7.25E-05
39.5005	7.63E-05
39.7505	7.63E-05
40.0005	8.01E-05
40.2505	8.77E-05
40.5005	8.39E-05
40.7505	8.77E-05
41.0005	8.77E-05
41.2505	8.77E-05
41.5005	9.54E-05
41.7505	9.54E-05
42.0005	9.54E-05
42.2505	9.92E-05
42.5005	0.000102997
42.7505	0.000106812
43.0005	0.000110627
43.2505	0.000110627
43.5005	0.000118256
43.7505	0.000122071
44.0005	0.000125886
44.2505	0.000129701
44.5005	0.000129701
44.7505	0.00013733
45.0005	0.000141145
45.2505	0.000144959
45.5005	0.000152589
45.7505	0.000156404
46.0005	0.000164033
46.2505	0.000171662
46.5005	0.000175477
46.7505	0.000186921
47.0005	0.000198365
47.2505	0.000205995
47.5005	0.000209809
47.7504	0.000213624
48.0004	0.000225068
48.2504	0.000232697
48.5004	0.000236512
48.7504	0.000251772
49.0004	0.000263216
49.2504	0.00027466
49.5004	0.000289919
49.7504	0.000308992
50.0004	0.000324251
50.2504	0.00033951
50.5004	0.000358583
50.7504	0.000373842
51.0004	0.000389101
51.2504	0.00040436
51.5004	0.000427248
51.7504	0.000465395
52.0004	0.000499729
52.2504	0.000526432
52.5004	0.000560764
52.7504	0.000595096
53.0004	0.000629429
53.2504	0.000682835
53.5004	0.000724796
53.7504	0.000778202
54.0004	0.000820164
54.2504	0.000873569
54.5004	0.000926975
54.7504	0.00101472
55.0004	0.00110245
55.2504	0.00117875
55.5004	0.00123215
55.7504	0.00131989
56.0004	0.0014267
56.2504	0.00158311
56.5004	0.00173951
56.7504	0.00184632
57.0004	0.00198366
57.2504	0.00215532
57.5004	0.0023575
57.7504	0.00260164
58.0004	0.00282671
58.2504	0.00302126
58.5004	0.00329973
58.7504	0.00361635
59.0004	0.00397113
59.2504	0.00427631
59.5004	0.00452808
59.7504	0.00475696
60.0004	0.00504687
60.2503	0.00535205
60.5003	0.00574496
60.7503	0.00608447
61.0003	0.00635532
61.2503	0.00675586
61.5003	0.00721362
61.7503	0.00764087
62.0003	0.00799567
62.2503	0.0081864
62.5003	0.00835043
62.7503	0.00855643
63.0003	0.00899893
63.2503	0.00930792
63.5003	0.00977331
63.7503	0.0103646
64.0001	0.0108262
64.2503	0.0112992
64.5003	0.0115662
64.7503	0.0118828
65.0003	0.0120926
65.2503	0.0121651
65.5003	0.0123826
65.7503	0.0126114
66.0003	0.0129433
66.2503	0.0129586
66.5003	0.0130845
66.7503	0.0134392
67.0003	0.0137482
67.2503	0.0142327
67.5003	0.014206
67.7503	0.0140458
68.0003	0.0139924
68.2503	0.0141793
68.5003	0.0145836
68.7503	0.0148469
69.0003	0.0151482
69.2503	0.0153161
69.5003	0.0152054
69.7503	0.0151673
70.0003	0.0150223
70.2503	0.0151253
70.5003	0.0150338
70.7503	0.0150223
71.0003	0.014946
71.2503	0.0148774
71.5003	0.0150757
71.7503	0.0155717
72.0003	0.0155259
72.2503	0.0153657
72.5003	0.0149842
72.7503	0.0148316
73.0002	0.0150529
73.2502	0.0149689
73.5002	0.0146371
73.7502	0.0142518
74.0002	0.0139237
74.2502	0.0136643
74.5002	0.0133858
74.7502	0.0131493
75.0002	0.0127526
75.2502	0.0125199
75.5002	0.0127869
75.7502	0.0130234
76.0002	0.0126
76.2502	0.0120392
76.5002	0.0117112
76.7502	0.0116311
77.0002	0.011364
77.2502	0.0107957
77.5002	0.0107194
77.7502	0.0107384
78.0002	0.0107194
78.2502	0.0104333
78.5002	0.0103379
78.7502	0.0099259
79.0002	0.00938803
79.2502	0.00919729
79.5002	0.00919348
79.7492	0.00910193
80.0002	0.00854498
80.2502	0.00786597
80.5002	0.00740436
80.7502	0.00747302
81.0002	0.00768283
81.2502	0.00781256
81.5002	0.00736621
81.7502	0.00662234
82.0002	0.00597385
82.2502	0.00579837
82.5001	0.00566867
82.7502	0.00551608
83.0001	0.00527957
83.2502	0.00476077
83.5002	0.00391772
83.7502	0.00260545
84	0.00139619
84.2502	0.000518803
84.5002	0.000251772
84.7492	0.000171662
84.9996	0.000133515
85.2495	0.000106812
85.5002	9.16E-05
85.7502	8.01E-05
86.0001	7.25E-05
86.2501	6.49E-05
86.5001	6.10E-05
86.7501	5.72E-05
87.0001	5.72E-05
87.2501	5.72E-05
87.5001	5.34E-05
87.7501	5.34E-05
88.0001	4.96E-05
88.2501	4.96E-05
88.5001	4.96E-05
88.7501	4.96E-05
88.9999	5.34E-05
89.2496	5.34E-05
89.4995	4.96E-05
89.7501	4.96E-05
90.0001	4.58E-05
90.2501	4.20E-05
90.5001	4.20E-05
90.7501	4.58E-05
91.0001	4.58E-05
91.2501	4.58E-05
91.5001	4.58E-05
91.7501	4.96E-05
92.0001	5.34E-05
92.2501	5.34E-05
92.5001	6.49E-05
92.7501	6.49E-05
93.0001	6.49E-05
93.2501	6.49E-05
93.5001	6.49E-05
93.7501	6.87E-05
94.0001	7.63E-05
94.2501	8.01E-05
94.5001	9.16E-05
94.7501	9.92E-05
95.0001	0.000110627
95.2501	0.000106812
95.5001	0.000118256
95.7501	0.000114441
96.0001	0.000122071
96.2501	0.000125886
96.5001	0.000129701
96.7501	0.000133515
97.0001	0.000152589
97.2501	0.000160218
97.5001	0.000171662
97.7501	0.000186921
98.0001	0.00019455
98.2501	0.000198365
98.5001	0.000198365
98.75	0.000183106
99	0.000148774
99.25	8.77E-05
99.5	3.81E-05
99.75	1.14E-05
100	3.81E-06
100.25	7.63E-06
100.5	7.63E-06
100.75	1.14E-05
101	1.14E-05
101.25	7.63E-06
101.5	1.14E-05
101.75	1.14E-05
102	7.63E-06
102.25	1.14E-05
102.5	1.14E-05
102.75	1.53E-05
103	1.53E-05
103.25	1.53E-05
103.5	1.14E-05
103.75	1.14E-05
104	1.14E-05
104.25	1.14E-05
104.5	1.14E-05
104.75	1.14E-05
105	1.53E-05
105	1.91E-05
