Photodiode Viewing Angle (Degrees) - Plot 0	Lock-in Signal Amplitude (V) - Plot 0
-18.9987	0.000497106
-18.7487	0.000499014
-18.4988	0.000501875
-18.2487	0.000495199
-17.9988	0.000493292
-17.7489	0.000479938
-17.4988	0.000475647
-17.2493	0.000468018
-16.9994	0.00046158
-16.7487	0.000461819
-16.4987	0.000457289
-16.2487	0.000454666
-15.9987	0.000458242
-15.7487	0.000452997
-15.4987	0.000452043
-15.2487	0.000448467
-14.9987	0.000447275
-14.7487	0.000443937
-14.4987	0.000444891
-14.2487	0.000441791
-13.9987	0.000442268
-13.7487	0.000439884
-13.4987	0.000438454
-13.2487	0.000436069
-12.9987	0.000434401
-12.7487	0.000434162
-12.4987	0.000435354
-12.2487	0.000436069
-11.9987	0.000435831
-11.7487	0.000437738
-11.4987	0.00043297
-11.2487	0.000429155
-10.9987	0.000429394
-10.7487	0.000425102
-10.4987	0.000424149
-10.2487	0.000425817
-9.99876	0.000424149
-9.74876	0.000425817
-9.49887	0.000424864
-9.24876	0.000425579
-8.99881	0.000422718
-8.74876	0.000421764
-8.49876	0.000419142
-8.24878	0.000424625
-7.99876	0.000421764
-7.74878	0.000421287
-7.49878	0.000425102
-7.24878	0.000421049
-6.99878	0.000421287
-6.74878	0.000424625
-6.49878	0.000423433
-6.24878	0.000422003
-5.99879	0.000419619
-5.74878	0.00041795
-5.49884	0.000418665
-5.24879	0.00041938
-4.99879	0.000416758
-4.74879	0.000419619
-4.49879	0.000416996
-4.24879	0.000417473
-3.99879	0.000418903
-3.74881	0.000418903
-3.49881	0.000418903
-3.24881	0.000416281
-2.99881	0.000417473
-2.74881	0.000415804
-2.49881	0.000415565
-2.24881	0.000416758
-1.99883	0.000415804
-1.74883	0.000414612
-1.49883	0.000416281
-1.24883	0.000411751
-0.998825	0.000409605
-0.748825	0.000411989
-0.498825	0.000412943
-0.248825	0.000409605
0.00117493	0.000411751
0.25116	0.000410797
0.50116	0.000409128
0.75116	0.00041342
1.00116	0.000410797
1.25116	0.000411274
1.50116	0.000412466
1.75116	0.000410559
2.00116	0.000410797
2.25114	0.000406744
2.50038	0.000404837
2.75009	0.000403168
3.00114	0.000400545
3.25114	0.00040436
3.50114	0.000400307
3.75114	0.000403406
4.00113	0.000402929
4.25113	0.000403883
4.50113	0.00040126
4.75113	0.000405313
5.00113	0.000405552
5.25113	0.000406744
5.50113	0.000407936
5.75111	0.000407221
6.00113	0.000401976
6.25111	0.00040579
6.50111	0.000400307
6.75111	0.000397684
7.00111	0.000402929
7.25111	0.000400307
7.50111	0.000399115
7.75111	0.00040126
7.99995	0.000400307
8.25111	0.000400783
8.5011	0.000403883
8.7511	0.000403406
9.0011	0.000403168
9.2511	0.000399591
9.5011	0.000404121
9.75108	0.000398876
10.0011	0.000399353
10.2511	0.000396015
10.5011	0.000392439
10.7511	0.000394823
11.0011	0.000395777
11.2511	0.000394108
11.5011	0.000397207
11.7511	0.000400068
12.0011	0.000399591
12.2511	0.000397446
12.5011	0.00039673
12.7511	0.000393631
13.0011	0.000393154
13.2511	0.000389578
13.5011	0.000385763
13.7511	0.000391247
14.0011	0.000393154
14.2511	0.000391962
14.5011	0.000389101
14.7511	0.000391247
15.0011	0.000394585
15.2511	0.000392677
15.501	0.000394108
15.7511	0.000391485
16.001	0.000390293
16.251	0.000389578
16.501	0.000389339
16.751	0.00038624
17.001	0.000385525
17.2509	0.000383617
17.501	0.000381472
17.751	0.000377895
18.001	0.000381233
18.251	0.000378611
18.501	0.000382425
18.751	0.000382664
19.001	0.000382902
19.251	0.000378611
19.501	0.000381948
19.751	0.000380756
20.001	0.000381233
20.251	0.000375988
20.501	0.000375988
20.751	0.000376465
21.001	0.000371696
21.251	0.000375034
21.501	0.000374319
21.751	0.000376465
22.001	0.000374081
22.251	0.000374319
22.5008	0.000372889
22.751	0.000377657
23.001	0.000375273
23.251	0.000377657
23.501	0.000378611
23.751	0.000379087
24.001	0.000372889
24.251	0.00037265
24.501	0.000373604
24.751	0.000368359
25.001	0.000365736
25.251	0.000365974
25.501	0.000360968
25.751	0.000361444
26.001	0.000359537
26.251	0.000358107
26.501	0.000361206
26.751	0.000356438
27.001	0.000358822
27.251	0.000357868
27.5009	0.000359299
27.751	0.000357153
28.0009	0.00035453
28.251	0.000354053
28.5009	0.000354292
28.7509	0.000355246
29.0009	0.000357391
29.2509	0.000354292
29.5009	0.000349285
29.7509	0.000343801
30.0009	0.000343086
30.2509	0.00034094
30.5009	0.000340464
30.7509	0.000340225
31.0009	0.000339748
31.2509	0.000340702
31.5009	0.000339748
31.7509	0.000335457
32.0009	0.000335934
32.2509	0.000334503
32.5009	0.000336887
32.7509	0.000339987
33.0009	0.000336649
33.2509	0.000335695
33.5009	0.000331642
33.7509	0.000330688
34.0009	0.000327112
34.2509	0.000322105
34.5009	0.000322344
34.7509	0.000319483
35.0009	0.000319721
35.2509	0.000319006
35.5009	0.000319244
35.7509	0.000320913
36.0009	0.000319721
36.2509	0.000319244
36.5009	0.000321867
36.7509	0.000319244
37.0009	0.000317814
37.2509	0.000318529
37.5009	0.000314476
37.7509	0.000313761
38.0009	0.000307085
38.2509	0.000302317
38.5009	0.000304224
38.7509	0.000302793
39.0009	0.000302317
39.2509	0.000304462
39.5009	0.000303747
39.7509	0.000299932
40.0009	0.000299456
40.2509	0.000299456
40.5008	0.000296356
40.7509	0.000293495
41.0008	0.000288727
41.2508	0.000291111
41.5008	0.000289442
41.7508	0.00028825
42.0008	0.000286104
42.2508	0.000286819
42.5008	0.000287296
42.7508	0.000287773
43.0008	0.000286104
43.2505	0.000285866
43.5008	0.000284197
43.7508	0.000280859
44.0008	0.000276806
44.2508	0.00027466
44.5008	0.000272753
44.7508	0.00027323
45.0008	0.000268938
45.2508	0.0002687
45.5008	0.000267984
45.7508	0.000267269
46.0008	0.000268461
46.2508	0.000266315
46.5008	0.000266554
46.7508	0.000266315
47.0008	0.000265123
47.2508	0.000260593
47.5008	0.000253441
47.7508	0.000251057
48.0008	0.00025058
48.2508	0.000245573
48.5008	0.000247957
48.7508	0.000247004
49.0008	0.000245096
49.2508	0.000248434
49.5008	0.000245573
49.7508	0.000248911
50.0008	0.000247957
50.2498	0.000244142
50.5008	0.000245096
50.7508	0.000240327
51.0008	0.000241281
51.2508	0.000234843
51.5008	0.00023079
51.7508	0.000226499
52.0008	0.000226737
52.2508	0.000223161
52.5008	0.000222445
52.7508	0.000220538
53.0008	0.000217916
53.2508	0.000213624
53.5007	0.000213624
53.7504	0.000210525
54.0006	0.000211478
54.2507	0.000210048
54.5007	0.000213147
54.7507	0.000215054
55.0007	0.000214578
55.2507	0.000210286
55.5007	0.000206948
55.7507	0.00020814
56.0007	0.000203134
56.2507	0.000203372
56.5007	0.000200511
56.7507	0.000196696
57.0007	0.000196935
57.2507	0.000193835
57.5007	0.000190974
57.7507	0.000190021
58.0007	0.000191213
58.2507	0.000190259
58.5006	0.000192643
58.7505	0.000187636
59.0007	0.000190974
59.2501	0.000185491
59.5001	0.000183822
59.7496	0.000177146
60.0007	0.000177861
60.2507	0.000170709
60.5007	0.000175954
60.7507	0.000174762
61.0007	0.000176431
61.2507	0.000168801
61.5007	0.000168801
61.7507	0.000164748
62.0007	0.000157834
62.2507	0.000152112
62.5007	0.000151874
62.7507	0.000151397
63.0007	0.000149251
63.2507	0.000148297
63.5007	0.000151397
63.7507	0.000147344
64.0007	0.000148774
64.2507	0.000148536
64.5007	0.000144006
64.7507	0.000139476
65.0007	0.000137092
65.2507	0.000138284
65.5007	0.000133992
65.7507	0.000128747
66.0006	0.000126124
66.2506	0.000129462
66.5006	0.000124694
66.7506	0.00012231
67.0006	0.000120163
67.2506	0.000121832
67.5006	0.00012064
67.7506	0.000120879
68.0006	0.000117302
68.2506	0.000114441
68.5006	0.000111819
68.7506	0.000108481
69.0006	0.000113488
69.2506	0.000114918
69.5005	0.000109673
69.7505	0.000103951
70.0006	0.000102282
70.2506	0.000102759
70.5003	0.00010562
70.7498	9.97E-05
71.0006	9.82E-05
71.2506	9.99E-05
71.5006	9.80E-05
71.7506	9.18E-05
72.0006	8.51E-05
72.2506	8.51E-05
72.5006	8.25E-05
72.7506	8.06E-05
73.0006	7.75E-05
73.2506	7.99E-05
73.5006	7.94E-05
73.7506	8.25E-05
74.0006	8.01E-05
74.2506	7.84E-05
74.5006	7.41E-05
74.7506	7.08E-05
75.0006	6.89E-05
75.2506	6.68E-05
75.5006	6.60E-05
75.7506	6.03E-05
76.0006	5.87E-05
76.2506	5.84E-05
76.5006	5.58E-05
76.7506	5.41E-05
77.0006	5.46E-05
77.2506	5.72E-05
77.5006	5.48E-05
77.7506	4.89E-05
78.0006	4.91E-05
78.2506	4.86E-05
78.5006	4.60E-05
78.7506	4.70E-05
79.0005	4.46E-05
79.2505	4.22E-05
79.5005	3.58E-05
79.7505	3.48E-05
80.0005	3.31E-05
80.2505	3.27E-05
80.5005	3.41E-05
80.7505	3.05E-05
81.0005	2.65E-05
81.2505	2.86E-05
81.5005	2.84E-05
81.7505	2.72E-05
82.0005	2.43E-05
82.2505	2.62E-05
82.5005	2.38E-05
82.7505	2.26E-05
83.0005	2.03E-05
83.2505	1.81E-05
83.5005	2.00E-05
83.7505	1.62E-05
84.0005	1.45E-05
84.2505	1.43E-05
84.5005	1.38E-05
84.7504	1.88E-05
85.0004	1.88E-05
85.2505	1.76E-05
85.5005	1.84E-05
85.7505	1.67E-05
86.0005	1.93E-05
86.2505	1.81E-05
86.5005	1.79E-05
86.7505	1.84E-05
87.0005	1.81E-05
87.2505	1.98E-05
87.5005	2.05E-05
87.7505	2.00E-05
88.0005	1.72E-05
88.2505	2.07E-05
88.5005	1.98E-05
88.7505	1.84E-05
89.0005	1.79E-05
89.2505	1.81E-05
89.5005	1.93E-05
89.7494	1.76E-05
89.9994	1.81E-05
90.2493	1.76E-05
90.4992	1.60E-05
90.7505	1.98E-05
91.0005	1.69E-05
91.2505	1.84E-05
91.5005	1.69E-05
91.7505	1.67E-05
92.0005	1.60E-05
92.2505	1.69E-05
92.5005	1.93E-05
92.7504	1.60E-05
93.0004	1.81E-05
93.2504	1.91E-05
93.5004	1.67E-05
93.7504	1.38E-05
94.0004	2.00E-05
94.2504	1.38E-05
94.5004	1.79E-05
94.7504	1.69E-05
95.0004	1.10E-05
95.2504	1.38E-05
95.5004	1.60E-05
95.749	1.50E-05
96.0004	1.60E-05
96.2504	1.48E-05
96.5004	1.69E-05
96.7504	1.76E-05
97.0004	1.62E-05
97.2504	1.65E-05
97.5004	1.26E-05
97.7504	1.36E-05
98.0004	1.26E-05
98.2504	1.55E-05
98.5004	1.43E-05
98.7504	1.31E-05
99.0004	1.43E-05
99.2504	1.43E-05
99.5004	1.22E-05
99.7504	1.10E-05
100	1.03E-05
100.25	1.55E-05
100.5	1.43E-05
100.749	9.54E-06
101	1.17E-05
101.25	1.14E-05
101.5	1.22E-05
101.75	1.29E-05
102	1.48E-05
102.25	1.03E-05
102.5	1.43E-05
102.75	8.34E-06
103	1.22E-05
103.25	1.19E-05
103.5	1.22E-05
103.75	7.63E-06
104	1.05E-05
104.25	7.63E-06
104.5	9.54E-06
104.75	1.05E-05
105	8.82E-06
105.25	9.30E-06
105.5	1.05E-05
105.75	7.15E-06
106	5.96E-06
106.25	8.11E-06
106.5	9.06E-06
106.75	8.11E-06
107	7.15E-06
107.25	7.15E-06
107.5	5.96E-06
107.75	7.15E-06
108	5.72E-06
108.25	4.29E-06
108.5	3.10E-06
108.75	8.11E-06
109	6.44E-06
109.25	6.44E-06
109.5	5.01E-06
109.75	5.25E-06
110	4.29E-06
110.249	2.15E-06
110.499	8.11E-06
110.749	6.44E-06
111	6.44E-06
111.25	5.01E-06
111.5	4.29E-06
111.75	4.77E-06
112	4.29E-06
112.25	7.39E-06
112.5	5.96E-06
112.75	7.87E-06
113	9.30E-06
113.25	8.11E-06
113.5	1.22E-05
113.75	6.91E-06
114	4.05E-06
114.25	7.63E-06
114.5	9.06E-06
114.75	8.34E-06
115	9.54E-06
115.25	1.34E-05
115.5	1.29E-05
115.75	1.69E-05
116	1.41E-05
116.25	1.62E-05
116.5	1.38E-05
116.75	1.26E-05
117	1.57E-05
117.25	1.60E-05
117.5	1.79E-05
117.75	1.38E-05
118	1.81E-05
118.25	1.76E-05
118.5	1.86E-05
118.75	1.14E-05
119	1.98E-05
119.25	2.12E-05
119.499	2.03E-05
119.75	2.07E-05
120	2.19E-05
120.25	1.76E-05
120.5	2.26E-05
120.75	2.07E-05
121	2.46E-05
121.25	2.15E-05
121.5	2.10E-05
121.75	2.31E-05
122	2.36E-05
122.25	2.53E-05
122.5	2.53E-05
122.75	2.41E-05
123	2.31E-05
123.25	2.24E-05
123.5	2.57E-05
123.75	2.62E-05
124	2.86E-05
124.25	2.91E-05
124.5	2.77E-05
124.75	2.98E-05
125	3.31E-05
125.25	3.27E-05
125.5	2.93E-05
125.75	2.98E-05
126	3.15E-05
126.25	3.36E-05
126.5	2.93E-05
126.75	3.50E-05
127	3.50E-05
127.25	3.31E-05
127.5	3.46E-05
127.75	3.36E-05
128	3.27E-05
128.25	3.34E-05
128.5	2.86E-05
128.75	2.77E-05
129	1.88E-05
129.25	1.38E-05
129.5	9.78E-06
129.75	1.00E-05
130	1.26E-05
130.25	9.78E-06
130.5	9.54E-06
130.75	1.05E-05
131	1.36E-05
131.25	1.14E-05
131.5	1.26E-05
131.75	1.22E-05
132	1.14E-05
132.25	1.14E-05
132.5	1.14E-05
132.75	1.19E-05
133	1.10E-05
133.25	1.14E-05
133.5	9.30E-06
133.75	1.05E-05
134	1.10E-05
134.25	1.22E-05
134.5	9.54E-06
134.75	1.12E-05
135	1.22E-05
135.25	8.82E-06
135.5	1.29E-05
135.75	1.10E-05
136	1.41E-05
136.25	1.07E-05
136.5	1.14E-05
136.75	1.38E-05
137	1.38E-05
137.25	1.53E-05
137.5	1.26E-05
137.75	1.84E-05
138	1.38E-05
138.25	1.31E-05
138.499	1.72E-05
138.75	1.60E-05
139	1.43E-05
139.248	1.69E-05
139.5	1.60E-05
139.75	1.60E-05
140	1.60E-05
140.25	1.60E-05
140.5	1.24E-05
140.75	1.79E-05
141	1.76E-05
141.25	1.74E-05
141.5	1.26E-05
141.75	1.50E-05
142	1.48E-05
142.25	1.41E-05
142.5	1.79E-05
142.75	1.24E-05
143	1.67E-05
143.249	1.55E-05
143.5	1.38E-05
143.75	1.14E-05
144	1.34E-05
144.25	1.38E-05
144.5	1.31E-05
144.75	1.50E-05
145	1.57E-05
145.25	1.22E-05
145.5	1.10E-05
145.75	1.57E-05
146	1.41E-05
146.25	1.24E-05
146.5	9.78E-06
146.75	1.60E-05
147	1.45E-05
147.25	1.38E-05
147.5	1.36E-05
147.75	1.14E-05
148	1.22E-05
148.25	1.36E-05
148.5	1.05E-05
148.75	1.45E-05
149	1.69E-05
149.25	1.53E-05
149.5	1.43E-05
149.75	1.26E-05
150	1.45E-05
150	1.31E-05
-33.9987	0.000417711
-33.7487	0.000423195
-33.4987	0.000421764
-33.2487	0.00041938
-32.9987	0.000415804
-32.7487	0.000403645
-32.4987	0.00039673
-32.2487	0.000395777
-31.9987	0.000391485
-31.7487	0.000385286
-31.4993	0.000383141
-31.2491	0.000380756
-30.9996	0.000382664
-30.7487	0.00038171
-30.4987	0.000380279
-30.2499	0.000377657
-30.0002	0.000377418
-29.7487	0.000376703
-29.4987	0.000373127
-29.2487	0.000372173
-28.9987	0.000369789
-28.7487	0.000369074
-28.4987	0.00036812
-28.2487	0.000371696
-27.9987	0.000369074
-27.7487	0.000365498
-27.4987	0.000365974
-27.2487	0.000369312
-26.9987	0.000371458
-26.7487	0.00037122
-26.4987	0.000365974
-26.2487	0.000369312
-25.9987	0.000365021
-25.7487	0.000362398
-25.4987	0.000359299
-25.2487	0.000360968
-24.9988	0.000364782
-24.7487	0.000363113
-24.4988	0.000361683
-24.2488	0.000363829
-23.9988	0.000364305
-23.7488	0.00036216
-23.4988	0.000365259
-23.2488	0.000365259
-22.9988	0.00036359
-22.7488	0.000366928
-22.4988	0.000364782
-22.2488	0.000368359
-21.9988	0.000369074
-21.7488	0.00036669
-21.4988	0.000366213
-21.2488	0.000368597
-20.9988	0.000367405
-20.7488	0.000366928
-20.4988	0.000366928
-20.2488	0.000366213
-19.9988	0.000366213
-19.7488	0.000365736
-19.4988	0.000364544
-19.2488	0.000366928
-18.9988	0.000366451
-18.7488	0.00036669
-18.4988	0.000368597
-18.2488	0.000369312
-17.9988	0.000371458
-17.7488	0.000371458
-17.4988	0.000374081
-17.2488	0.000370504
-16.9988	0.000369789
-16.7488	0.000366928
-16.4988	0.000365974
-16.2488	0.000369789
-15.9988	0.00036812
-15.7488	0.000370266
-15.4988	0.000369074
-15.2488	0.000365974
-14.9988	0.000367882
-14.7488	0.000370266
-14.4988	0.000370743
-14.2488	0.000365974
-13.9988	0.000372889
-13.7488	0.000371935
-13.4988	0.000372173
-13.2488	0.000370743
-12.9988	0.000371458
-12.7489	0.00037122
-12.4989	0.000373604
-12.2489	0.000366213
-11.9989	0.000367643
-11.7489	0.00036812
-11.4989	0.000367882
-11.2489	0.000369789
-10.9989	0.000369074
-10.7489	0.000370981
-10.4989	0.000374796
-10.2489	0.000374796
-9.99887	0.000372412
-9.74887	0.000376942
-9.49887	0.000376465
-9.24969	0.000376465
-8.99973	0.00037575
-8.74889	0.000374319
-8.49889	0.000374557
-8.24889	0.00037265
-7.99889	0.000373842
-7.74889	0.000374796
-7.49889	0.000378372
-7.24889	0.000376942
-6.9989	0.000378134
-6.74889	0.000384094
-6.4989	0.000380756
-6.2489	0.000384094
-5.9989	0.000380518
-5.7489	0.000380279
-5.4989	0.000377418
-5.24892	0.000377418
-4.9989	0.000376703
-4.74892	0.000375988
-4.49892	0.000379803
-4.24892	0.000375273
-3.99892	0.000378372
-3.74892	0.000379803
-3.49893	0.000382187
-3.24892	0.000382425
-2.99893	0.000381233
-2.74892	0.000380279
-2.49893	0.000379564
-2.24893	0.000376703
-1.99893	0.00037575
-1.74893	0.000374319
-1.49893	0.000378134
-1.24895	0.000376465
-0.998932	0.000376942
-0.748947	0.000380756
-0.498947	0.000379087
-0.248947	0.000380995
0.00105286	0.00038171
0.251053	0.000382425
0.501038	0.000384094
0.751053	0.000382664
1.00093	0.000383379
1.25081	0.000381948
1.50104	0.000380041
1.75104	0.000378134
2.00104	0.000375273
2.25102	0.000374557
2.50104	0.000371935
2.75102	0.000378134
3.00104	0.00037575
3.25102	0.000376942
3.50102	0.00037575
3.75102	0.000378134
4.00102	0.000376226
4.25102	0.000377657
4.50101	0.000379087
4.75102	0.000377657
5.00101	0.000378372
5.25101	0.000375511
5.50101	0.000375988
5.75101	0.000376465
6.00101	0.000376465
6.25099	0.000378611
6.50101	0.000377657
6.75099	0.000380756
7.001	0.000375988
7.25099	0.00037718
7.501	0.000382187
7.75099	0.000380041
8.00098	0.000382187
8.25098	0.000384809
8.50098	0.000387432
8.75098	0.000380279
9.00098	0.00037718
9.25098	0.000378372
9.50098	0.00037718
9.75098	0.000377418
10.001	0.000371935
10.251	0.000373127
10.5009	0.000374081
10.751	0.000371935
11.001	0.000372412
11.251	0.000374081
11.501	0.00037718
11.751	0.000379326
12.001	0.000376465
12.251	0.000371458
12.5009	0.000373365
12.751	0.000373127
13.0009	0.00037575
13.251	0.000372412
13.5009	0.000375273
13.7509	0.000372889
14.0009	0.000370266
14.2509	0.000370266
14.5009	0.000369789
14.7509	0.000370743
15.0009	0.000370266
15.2509	0.000366213
15.5009	0.000365021
15.7509	0.000365736
16.0009	0.000367166
16.2509	0.000365736
16.5009	0.000365021
16.7509	0.00036812
17.0009	0.00036812
17.2509	0.000369074
17.5009	0.00037122
17.7509	0.000366928
18.0009	0.000370027
18.2509	0.000371935
18.5009	0.000369551
18.7509	0.000365974
19.0009	0.000362398
19.2509	0.000361206
19.5009	0.000360968
19.7509	0.000361921
20.0009	0.000364305
20.2509	0.000364782
20.5009	0.000365498
20.7509	0.000367882
21.0009	0.000366451
21.2509	0.000368597
21.5009	0.000365974
21.7509	0.00037122
22.0009	0.000366213
22.2509	0.000361444
22.5009	0.00035906
22.7509	0.000355007
23.0009	0.000355961
23.2509	0.000358107
23.5009	0.000357391
23.7509	0.000356914
24.0009	0.000360968
24.2509	0.000360252
24.5009	0.000356199
24.7509	0.000355246
25.0009	0.00035763
25.2509	0.000354769
25.5008	0.000350954
25.7509	0.000353577
26.0008	0.000352385
26.2508	0.0003531
26.5008	0.000349762
26.7508	0.000353338
27.0008	0.000350954
27.2508	0.000352861
27.5008	0.000350716
27.7508	0.000353577
28.0008	0.000347855
28.2502	0.000349762
28.5	0.000348808
28.7508	0.000346662
29.0008	0.000344755
29.2508	0.000342848
29.5008	0.00034094
29.7508	0.000339272
30.0008	0.000341656
30.2508	0.000340464
30.5008	0.00034094
30.7508	0.000342848
31.0008	0.000342609
31.2508	0.000342133
31.5008	0.000339748
31.7508	0.000338079
32.0008	0.000336887
32.2508	0.000333311
32.5008	0.000330927
32.7508	0.000328781
33.0008	0.00032592
33.2508	0.000324966
33.5008	0.00032902
33.7508	0.000334742
34.0008	0.000333549
34.2508	0.000332596
34.5008	0.000330927
34.7508	0.000330212
35.0008	0.000330688
35.2508	0.000327827
35.5008	0.000327112
35.7508	0.00032139
36.0007	0.000318291
36.2507	0.000317099
36.5008	0.000311615
36.7508	0.000314953
37.0008	0.000307323
37.2508	0.000311377
37.5008	0.000312092
37.7508	0.000309469
38.0008	0.000307562
38.2508	0.000303747
38.5007	0.000304224
38.7508	0.000304224
39.0007	0.000304939
39.2507	0.0003078
39.5007	0.000309946
39.7507	0.000306847
40.0007	0.000311615
40.2507	0.000309469
40.5007	0.000307323
40.7507	0.000303032
41.0007	0.000305178
41.2507	0.000307085
41.5007	0.000300886
41.7507	0.000297787
42.0007	0.00029731
42.2507	0.000298979
42.5007	0.00029731
42.7507	0.000299456
43.0007	0.00030184
43.2507	0.000299456
43.5007	0.000300648
43.7507	0.000297071
44.0007	0.000296118
44.2507	0.000291588
44.5007	0.000287773
44.7507	0.000288965
45.0007	0.000288012
45.2507	0.000289442
45.5007	0.00028825
45.7507	0.000287535
46.0007	0.000284197
46.2507	0.000281336
46.5007	0.000279428
46.7507	0.000273945
47.0007	0.000272276
47.2507	0.000269653
47.5007	0.000272276
47.7507	0.000266554
48.0007	0.000269653
48.2507	0.000268461
48.5007	0.000271322
48.7507	0.000271084
49.0007	0.0002656
49.2507	0.000264885
49.5007	0.000264885
49.7507	0.000259878
50.0007	0.000257017
50.2507	0.000256302
50.5007	0.000255587
50.7507	0.000252249
51.0006	0.000250818
51.2506	0.000249388
51.5006	0.000248434
51.7506	0.000248911
52.0006	0.000250103
52.2506	0.000248196
52.5006	0.000245573
52.7506	0.000244142
53.0006	0.000242473
53.2506	0.000239373
53.5006	0.000242473
53.7506	0.000244142
54.0006	0.000242473
54.2506	0.000240804
54.5006	0.000240804
54.7506	0.000240088
55.0006	0.000241757
55.2506	0.000239135
55.5006	0.000236751
55.7506	0.000237466
56.0006	0.000237943
56.2504	0.000233174
56.5006	0.000228644
56.7505	0.000224114
57.0006	0.000220777
57.2502	0.000218631
57.5004	0.000219584
57.7502	0.000217677
58.0003	0.000218631
58.2506	0.000223638
58.5006	0.000225783
58.7506	0.000221015
59.0006	0.0002203
59.2506	0.000214816
59.5006	0.000216485
59.7506	0.000213624
60.0006	0.000208617
60.2506	0.000208617
60.5006	0.000205279
60.7506	0.000200034
61.0006	0.000199319
61.2506	0.000198127
61.5006	0.000197888
61.7506	0.000200988
62.0006	0.000200988
62.2506	0.000198365
62.5006	0.000195266
62.7506	0.000196696
63.0006	0.000193597
63.2506	0.000191928
63.5006	0.000194789
63.7506	0.000189782
64.0005	0.000185252
64.249	0.000183106
64.5005	0.000181199
64.7505	0.000179292
64.999	0.000175239
65.2505	0.000174762
65.5005	0.000172378
65.7505	0.000169278
66.0005	0.000166656
66.2505	0.000171662
66.5005	0.00017357
66.7505	0.000168563
67.0005	0.000167848
67.2505	0.000165225
67.5004	0.00016451
67.7505	0.000163079
68.0005	0.000163079
68.2503	0.000160933
68.5005	0.000150443
68.7502	0.00014782
69.0003	0.000143767
69.2501	0.000148297
69.5005	0.000147105
69.7505	0.000145436
70.0005	0.00014782
70.2505	0.000148297
70.5005	0.000144483
70.7505	0.000140906
71.0005	0.000137092
71.2505	0.000140429
71.5005	0.000134707
71.7505	0.000132085
72.0005	0.000127793
72.2505	0.000123263
72.5005	0.000127555
72.7505	0.000123263
73.0005	0.000123263
73.2505	0.000120402
73.5005	0.000118256
73.7505	0.000119925
74.0005	0.000117779
74.2505	0.000114441
74.5005	0.000117302
74.7505	0.000108958
75.0005	0.000107527
75.2505	0.000105143
75.5005	0.000107527
75.7505	0.00010109
76.0005	9.80E-05
76.2505	8.99E-05
76.5005	9.04E-05
76.7505	9.30E-05
77.0005	9.63E-05
77.2505	9.39E-05
77.5005	8.89E-05
77.7504	8.27E-05
78.0004	8.77E-05
78.2504	8.30E-05
78.5004	8.34E-05
78.7504	8.08E-05
79.0004	7.84E-05
79.2504	7.82E-05
79.5004	7.18E-05
79.7492	6.60E-05
80.0004	6.53E-05
80.2504	6.44E-05
80.5004	6.03E-05
80.7504	6.25E-05
81.0004	6.10E-05
81.2504	6.25E-05
81.5004	5.82E-05
81.7504	5.15E-05
82.0004	4.89E-05
82.2504	4.72E-05
82.5004	4.91E-05
82.7504	4.51E-05
83.0004	4.41E-05
83.2499	4.15E-05
83.5004	3.72E-05
83.7504	3.31E-05
84.0004	3.48E-05
84.2504	3.36E-05
84.5004	2.79E-05
84.7504	1.55E-05
85.0004	7.87E-06
85.2504	1.19E-05
85.5004	1.19E-05
85.7504	1.31E-05
86.0004	1.14E-05
86.2504	1.31E-05
86.5004	1.14E-05
86.7504	1.55E-05
87.0004	1.48E-05
87.2504	1.12E-05
87.5004	1.43E-05
87.7504	1.31E-05
88.0004	1.24E-05
88.2504	1.41E-05
88.5004	1.22E-05
88.7504	1.05E-05
89.0004	9.78E-06
89.2504	1.03E-05
89.5004	1.22E-05
89.7504	1.17E-05
90.0004	1.17E-05
90.2503	1.43E-05
90.5003	1.22E-05
90.7503	1.05E-05
91.0003	1.22E-05
91.2503	1.34E-05
91.5003	8.82E-06
91.7503	1.22E-05
92.0003	1.14E-05
92.2503	9.78E-06
92.5003	9.06E-06
92.7503	8.11E-06
93.0003	1.29E-05
93.2503	8.82E-06
93.5003	7.15E-06
93.7503	6.91E-06
94.0003	7.39E-06
94.2503	7.39E-06
94.5003	5.25E-06
94.7503	3.58E-06
95.0003	9.78E-06
95.2503	4.29E-06
95.5003	3.10E-06
95.7503	7.63E-06
96.0003	7.87E-06
96.2503	7.15E-06
96.5003	9.30E-06
96.7503	9.30E-06
97.0003	7.15E-06
97.2503	6.20E-06
97.5003	7.15E-06
97.7503	7.15E-06
98.0003	5.48E-06
98.2503	8.58E-06
98.5003	7.39E-06
98.7503	5.25E-06
99.0003	8.11E-06
99.2503	1.26E-05
99.5003	8.11E-06
99.7503	9.54E-06
100	9.54E-06
100.25	1.05E-05
100.5	1.03E-05
100.75	9.54E-06
101	1.03E-05
101.25	7.15E-06
101.5	9.30E-06
101.75	1.12E-05
102	1.26E-05
102.25	9.78E-06
102.5	9.30E-06
102.75	1.24E-05
103	1.36E-05
103.25	1.38E-05
103.5	1.36E-05
103.75	1.55E-05
104	1.76E-05
104.25	1.69E-05
104.5	1.79E-05
104.75	1.31E-05
105	1.50E-05
105.25	1.45E-05
105.5	1.93E-05
105.75	1.67E-05
106	1.72E-05
106.25	1.79E-05
106.5	1.65E-05
106.75	1.98E-05
107	1.98E-05
107.25	1.79E-05
107.5	1.76E-05
107.749	1.65E-05
107.999	1.36E-05
108.25	1.81E-05
108.5	1.88E-05
108.75	1.76E-05
109	2.69E-05
109.25	2.48E-05
109.5	2.53E-05
109.75	2.22E-05
110	2.24E-05
110.25	2.60E-05
110.5	2.48E-05
110.75	2.53E-05
111	2.69E-05
111.25	2.43E-05
111.5	2.65E-05
111.75	2.77E-05
112	2.98E-05
112.25	2.93E-05
112.5	3.24E-05
112.75	3.29E-05
113	3.48E-05
113.25	3.29E-05
113.5	3.46E-05
113.75	3.48E-05
114	4.05E-05
114.25	4.22E-05
114.5	4.24E-05
114.75	4.39E-05
115	4.60E-05
115.25	5.10E-05
115.5	5.03E-05
115.75	5.48E-05
116	5.03E-05
116.25	4.84E-05
116.5	4.70E-05
116.75	5.20E-05
117	5.48E-05
117.25	5.25E-05
117.5	4.91E-05
117.75	4.65E-05
118	4.29E-05
118.25	3.91E-05
118.5	3.03E-05
118.75	2.31E-05
119	1.60E-05
119.25	1.50E-05
119.5	1.55E-05
119.75	1.69E-05
120	1.48E-05
120.25	1.31E-05
120.5	1.26E-05
120.75	1.41E-05
121	1.14E-05
121.25	1.48E-05
121.5	1.17E-05
121.75	1.50E-05
122	1.05E-05
122.25	1.31E-05
122.5	1.19E-05
122.75	1.14E-05
123	1.62E-05
123.25	1.31E-05
123.5	1.38E-05
123.75	1.38E-05
124	1.65E-05
124.25	1.43E-05
124.5	1.86E-05
124.75	1.48E-05
125	1.60E-05
125.25	1.48E-05
125.5	1.14E-05
125.75	1.48E-05
126	1.38E-05
126.25	1.65E-05
126.5	1.48E-05
126.75	1.45E-05
127	1.31E-05
127.25	1.31E-05
127.5	1.34E-05
127.75	1.50E-05
128	1.29E-05
128.25	9.78E-06
128.5	1.31E-05
128.75	1.38E-05
129	1.43E-05
129.25	1.14E-05
129.5	8.34E-06
129.75	1.10E-05
130	1.12E-05
130.25	1.24E-05
130.5	1.26E-05
130.75	1.41E-05
131	1.22E-05
131.25	1.26E-05
131.5	1.74E-05
131.75	1.17E-05
132	1.43E-05
132.25	1.65E-05
132.5	1.36E-05
132.75	1.38E-05
133	1.55E-05
133.25	1.22E-05
133.5	1.41E-05
133.75	1.10E-05
134	1.48E-05
134.25	1.57E-05
134.5	1.17E-05
134.75	1.17E-05
135	1.14E-05
135	9.78E-06
-48.9987	0.000315906
-48.7487	0.000322582
-48.4987	0.000317814
-48.2487	0.000316622
-47.9987	0.000309469
-47.7487	0.000302078
-47.4987	0.000294687
-47.2487	0.000293972
-46.9998	0.000291588
-46.7497	0.000282766
-46.4987	0.000285389
-46.2487	0.00028372
-45.9987	0.000282289
-45.7487	0.000282289
-45.4987	0.000282766
-45.2487	0.00027919
-44.9987	0.000278713
-44.7487	0.000276806
-44.4987	0.000277283
-44.2487	0.000272514
-43.9987	0.000270607
-43.7487	0.000271084
-43.4987	0.000268938
-43.2487	0.000269415
-42.9987	0.000268938
-42.7487	0.000267984
-42.4987	0.000269653
-42.2497	0.000273706
-41.9987	0.000272514
-41.7487	0.000270607
-41.4987	0.000269176
-41.2487	0.000268938
-40.9987	0.000268461
-40.7487	0.0002687
-40.4987	0.000266554
-40.2487	0.000270845
-39.9988	0.000269415
-39.7487	0.000266792
-39.4988	0.000268938
-39.2488	0.000268461
-38.9988	0.000271084
-38.7488	0.000267984
-38.4988	0.000269653
-38.2488	0.000271322
-37.9988	0.000273945
-37.7488	0.000273945
-37.4988	0.000273468
-37.2488	0.000276806
-36.9988	0.000276091
-36.7488	0.00027776
-36.4988	0.000275137
-36.2502	0.000274898
-36.0004	0.000274422
-35.7504	0.00027466
-35.5004	0.000272514
-35.2488	0.000277044
-34.9988	0.000279428
-34.7488	0.000278952
-34.4988	0.000275852
-34.2488	0.000276091
-33.9988	0.000273945
-33.7488	0.00027919
-33.4988	0.000280621
-33.2488	0.000280621
-32.9988	0.000282766
-32.7488	0.000278952
-32.4988	0.000282766
-32.2501	0.000279905
-31.9997	0.000281097
-31.7503	0.000278713
-31.5003	0.000281813
-31.2488	0.000281813
-30.9988	0.000279428
-30.7488	0.000282289
-30.4988	0.000284435
-30.2488	0.000283243
-29.9988	0.000286343
-29.7488	0.000285627
-29.4988	0.000289919
-29.2488	0.000289442
-28.9988	0.000287773
-28.7488	0.000290157
-28.4988	0.000290157
-28.2488	0.000290634
-27.9988	0.000291111
-27.7489	0.000293018
-27.4989	0.00028825
-27.2498	0.000288965
-26.9998	0.000289919
-26.7489	0.000288488
-26.5	0.000291349
-26.2506	0.000291826
-25.9989	0.000294687
-25.7489	0.000293495
-25.4989	0.000293018
-25.2489	0.000296595
-24.9989	0.000298979
-24.7489	0.000297787
-24.4989	0.000299456
-24.2489	0.000299456
-23.9989	0.00030184
-23.7489	0.000297787
-23.4989	0.000296833
-23.2489	0.00029874
-22.9989	0.000301363
-22.7489	0.000300886
-22.4989	0.000298979
-22.2489	0.000305654
-21.9989	0.000306131
-21.7489	0.000305416
-21.4989	0.000307085
-21.2489	0.000310423
-20.9989	0.000311138
-20.7489	0.000308754
-20.4989	0.000308992
-20.2489	0.000309231
-19.9989	0.000308992
-19.7489	0.000304224
-19.4989	0.000310423
-19.2489	0.000312807
-18.9989	0.000314953
-18.7489	0.000312569
-18.4989	0.000315191
-18.2489	0.000311615
-17.9989	0.000313284
-17.7489	0.000312569
-17.4989	0.000313761
-17.2489	0.000313522
-16.9989	0.000316145
-16.7489	0.000315668
-16.4989	0.0003109
-16.2489	0.000314476
-15.9989	0.000315191
-15.7489	0.000316145
-15.4989	0.000319483
-15.2489	0.000321152
-14.9989	0.000323059
-14.7489	0.000324013
-14.499	0.000322821
-14.2489	0.000321152
-13.999	0.000323297
-13.749	0.000321629
-13.499	0.000321629
-13.249	0.000320913
-12.999	0.000317099
-12.749	0.000320436
-12.499	0.000319006
-12.249	0.000324251
-11.999	0.000321152
-11.749	0.000324251
-11.4995	0.000322582
-11.2499	0.000326874
-10.999	0.000326635
-10.749	0.000325443
-10.499	0.00032449
-10.249	0.000324966
-9.99899	0.000323774
-9.74899	0.000327112
-9.49899	0.000326635
-9.24899	0.000325205
-8.99899	0.000324251
-8.74901	0.000326635
-8.49899	0.00032902
-8.24901	0.000328781
-7.999	0.000329973
-7.74901	0.00033045
-7.499	0.00033045
-7.24901	0.000337841
-6.99902	0.000333788
-6.74902	0.000336649
-6.49902	0.000337841
-6.24902	0.000334026
-5.99902	0.000337126
-5.74985	0.000330212
-5.49902	0.000332119
-5.24902	0.000334265
-4.99902	0.00033498
-4.74903	0.000334026
-4.49903	0.000333788
-4.24904	0.000328781
-3.99903	0.00033045
-3.74904	0.000331165
-3.49904	0.000333311
-3.24904	0.000331642
-2.99904	0.000337603
-2.74905	0.000333549
-2.49905	0.000337364
-2.24905	0.000336649
-1.99905	0.000336887
-1.74905	0.00033951
-1.49905	0.000338079
-1.24905	0.000334742
-0.999062	0.000332834
-0.749062	0.000336172
-0.499062	0.00033641
-0.249069	0.000332834
0.000938416	0.000332596
0.250931	0.000332596
0.500931	0.000332119
0.750923	0.000333311
1.00093	0.000334265
1.25092	0.000332834
1.50092	0.000332596
1.75092	0.00033641
2.00092	0.000340464
2.25092	0.000337603
2.50092	0.000335934
2.75092	0.000338318
3.00091	0.000338079
3.25092	0.000342371
3.50091	0.000337126
3.7509	0.000339272
4.00091	0.000337841
4.2509	0.000335695
4.5009	0.000337364
4.75089	0.000336172
5.0009	0.000337603
5.25089	0.000338795
5.50089	0.000344994
5.75089	0.000342133
6.00089	0.000343325
6.25089	0.000343086
6.50088	0.000343086
6.75089	0.000341417
7.00088	0.000342133
7.25089	0.000338556
7.50088	0.000343086
7.75087	0.000339272
7.99998	0.000340225
8.25087	0.000342609
8.50087	0.000340464
8.75086	0.000342609
9.00087	0.000340464
9.25086	0.000341894
9.50086	0.000341417
9.75086	0.000345947
10.0009	0.000342609
10.2509	0.000338795
10.5008	0.000342133
10.7509	0.000342609
11.0008	0.000341179
11.2508	0.000339748
11.5008	0.000341179
11.7508	0.000341417
12.0008	0.000343563
12.2508	0.000342133
12.5008	0.000342609
12.7508	0.000343086
13.0008	0.000343086
13.2508	0.000341656
13.5008	0.000343086
13.7496	0.000345232
14.0008	0.000342609
14.2491	0.000341179
14.5008	0.000342371
14.7508	0.000343325
15.0008	0.000341656
15.2508	0.000342609
15.5008	0.000344278
15.7508	0.000341894
16.0008	0.000343801
16.2508	0.000339272
16.5008	0.000342371
16.7508	0.000337841
17.0008	0.000338318
17.2508	0.000339748
17.5008	0.000338079
17.7508	0.00033498
18.0008	0.000339748
18.2508	0.000338795
18.5008	0.000339272
18.7508	0.00034094
19.0008	0.000339748
19.2508	0.000344517
19.5008	0.000341417
19.7508	0.000343563
20.0008	0.000342133
20.2508	0.000338795
20.5008	0.000338795
20.7508	0.000338556
21.0006	0.000336172
21.2508	0.000334265
21.5006	0.000331642
21.7505	0.000332119
22.0008	0.000332596
22.2508	0.000328781
22.5008	0.000331642
22.7508	0.000332357
23.0008	0.000331165
23.2508	0.000332119
23.5007	0.000330212
23.7508	0.000330927
24.0007	0.000330927
24.2507	0.000335218
24.5007	0.000332834
24.7507	0.000336887
25.0007	0.00033498
25.2507	0.000338079
25.5007	0.000337364
25.7507	0.000335934
26.0007	0.000335457
26.2507	0.000335934
26.5007	0.000336887
26.7507	0.000334265
27.0007	0.00033498
27.2507	0.000335457
27.5007	0.000335934
27.7507	0.000335457
28.0007	0.000336887
28.2507	0.00033641
28.5007	0.000334265
28.7507	0.000334742
29.0007	0.000338079
29.2507	0.00033641
29.5007	0.000334026
29.7507	0.000335457
30.0007	0.000333311
30.2507	0.000330927
30.5007	0.000331642
30.7507	0.000330688
31.0007	0.00032592
31.2507	0.000326397
31.5007	0.000323297
31.7507	0.000323774
32.0007	0.000320675
32.2507	0.000321629
32.5006	0.000322582
32.7505	0.000321152
33.0005	0.000324013
33.2504	0.000322105
33.5007	0.000323297
33.7507	0.000323059
34.0007	0.000324013
34.2507	0.000321629
34.5007	0.000322105
34.7507	0.000318529
35.0007	0.000318291
35.2507	0.000317099
35.5007	0.000318291
35.7507	0.000312807
36.0006	0.000314476
36.2506	0.000315906
36.5006	0.00031543
36.7506	0.000313761
37.0006	0.000318052
37.2506	0.000318052
37.5006	0.000316622
37.7506	0.00031543
38.0006	0.000314953
38.2506	0.000317337
38.5006	0.000316145
38.7506	0.000317575
39.0006	0.000317099
39.2506	0.000316383
39.5006	0.000320198
39.7506	0.00031996
40.0006	0.000316145
40.2506	0.000314953
40.5006	0.000316622
40.7506	0.000317099
41.0006	0.000314953
41.2506	0.000314476
41.5006	0.000309469
41.7506	0.000311615
42.0006	0.000308516
42.2506	0.000306608
42.5006	0.000311615
42.7506	0.000311138
43.0006	0.000313045
43.2506	0.000314238
43.5006	0.000315191
43.7505	0.000314476
44.0004	0.000316145
44.2504	0.000312807
44.5006	0.000310423
44.7504	0.000309469
45.0006	0.000303747
45.2506	0.000302793
45.5006	0.000301125
45.7506	0.000300409
46.0006	0.000299217
46.2506	0.000305416
46.5006	0.000300648
46.7506	0.000305416
47.0006	0.000305416
47.2506	0.000305178
47.5006	0.000308754
47.7506	0.000310423
48.0006	0.000309231
48.2506	0.000308754
48.5006	0.000303747
48.7506	0.000304701
49.0005	0.0003078
49.2505	0.000302317
49.5005	0.000298264
49.7505	0.000294926
50.0005	0.00029278
50.2505	0.000295879
50.5005	0.000294926
50.7505	0.000295164
51.0005	0.00030327
51.2505	0.000302793
51.5005	0.000304224
51.7505	0.000302793
52.0005	0.000302793
52.2505	0.000302078
52.5005	0.000301125
52.7505	0.000301125
53.0005	0.000298502
53.2505	0.000296833
53.5005	0.000294926
53.7505	0.000296595
54.0005	0.000294449
54.2505	0.00029278
54.5005	0.000293495
54.7505	0.000299456
55.0005	0.000300886
55.2505	0.000300648
55.5005	0.000302078
55.7505	0.000298264
56.0005	0.00029874
56.2505	0.000293257
56.5005	0.000289442
56.7505	0.000286581
57.0005	0.000288488
57.2505	0.000289204
57.5005	0.000290396
57.7505	0.000295402
58.0005	0.000297787
58.2505	0.000299932
58.5005	0.000293972
58.7505	0.000295402
59.0005	0.000294926
59.2505	0.00029731
59.5005	0.000296118
59.7505	0.000291826
60.0005	0.000293734
60.2505	0.000292303
60.5005	0.000294687
60.7505	0.000291826
61.0005	0.000288488
61.2505	0.000288488
61.5005	0.000292303
61.7505	0.000296833
62.0005	0.000297787
62.2505	0.000297787
62.5005	0.000290873
62.7504	0.000287296
63.0004	0.000287535
63.2504	0.000292303
63.5004	0.000296595
63.7504	0.000297548
64.0004	0.000291588
64.2504	0.000290157
64.5004	0.000281574
64.7504	0.000275614
65.0004	0.000276329
65.2504	0.000282289
65.5004	0.000286343
65.7504	0.000291111
66.0003	0.000289442
66.2501	0.000291111
66.5004	0.000284435
66.7504	0.00027466
67.0004	0.000272753
67.2504	0.000270845
67.5004	0.000272276
67.7504	0.000272037
68.0004	0.000272276
68.2504	0.000274422
68.5004	0.000272276
68.7504	0.000276806
69.0004	0.000283005
69.2504	0.000284912
69.5004	0.000282289
69.7504	0.000272276
70.0004	0.000271322
70.2504	0.000268461
70.5004	0.000265362
70.7504	0.0002656
71.0004	0.000264646
71.2504	0.000263693
71.5004	0.000261547
71.7504	0.000264885
72.0004	0.000265362
72.2504	0.0002656
72.5004	0.000262262
72.7504	0.000255587
73.0004	0.000248672
73.2504	0.000249626
73.5004	0.000252726
73.7504	0.000251295
74.0004	0.00024748
74.2504	0.00023842
74.5004	0.000241519
74.7504	0.000245096
75.0004	0.000242949
75.2503	0.000237943
75.5003	0.000235797
75.7503	0.000235558
76.0003	0.000232936
76.2503	0.000232936
76.5003	0.000224591
76.7503	0.00021577
77.0003	0.000208617
77.2503	0.000209809
77.5003	0.000214101
77.7503	0.000219823
78.0003	0.000217439
78.2503	0.000208617
78.5003	0.000196458
78.7503	0.000195981
79.0003	0.000200511
79.2503	0.000201941
79.5003	0.000207425
79.7503	0.000208379
80.0003	0.000201703
80.2503	0.000192882
80.5003	0.000180961
80.7503	0.000173331
81.0003	0.000168086
81.2492	0.000166417
81.5003	0.000166894
81.7503	0.000160933
82.0003	0.000159026
82.2503	0.000161172
82.5003	0.000163556
82.7503	0.000165702
83.0003	0.000158072
83.2503	0.00014782
83.5003	0.000135423
83.7503	0.0001328
84.0003	0.000129939
84.2503	0.000127555
84.5003	0.000112296
84.7503	8.56E-05
85.0003	4.91E-05
85.2503	2.29E-05
85.5003	1.48E-05
85.7503	1.41E-05
86.0003	1.24E-05
86.2503	1.10E-05
86.5003	1.38E-05
86.7503	1.22E-05
87.0003	1.12E-05
87.2503	1.48E-05
87.5003	1.24E-05
87.7503	1.48E-05
88.0002	1.43E-05
88.2502	1.12E-05
88.5002	1.38E-05
88.7502	1.43E-05
89.0002	1.31E-05
89.2502	1.55E-05
89.5002	1.26E-05
89.7502	1.65E-05
90.0002	1.55E-05
90.2502	1.65E-05
90.5002	1.60E-05
90.7502	1.69E-05
91.0002	1.65E-05
91.2502	1.84E-05
91.5002	1.74E-05
91.7502	1.84E-05
91.9982	1.96E-05
92.2485	2.03E-05
92.5002	1.81E-05
92.7502	1.60E-05
93.0002	1.69E-05
93.2502	2.26E-05
93.5002	2.03E-05
93.7502	1.96E-05
94.0002	2.15E-05
94.2501	2.15E-05
94.5001	2.15E-05
94.7502	2.41E-05
95.0002	2.36E-05
95.2499	2.41E-05
95.5002	2.60E-05
95.7502	2.26E-05
96.0002	2.48E-05
96.2502	2.46E-05
96.5002	2.46E-05
96.7502	2.53E-05
97.0002	2.60E-05
97.2502	2.93E-05
97.5002	3.03E-05
97.7502	3.27E-05
98.0002	3.50E-05
98.2502	3.29E-05
98.5002	3.53E-05
98.7502	3.48E-05
99.0002	4.17E-05
99.2502	4.24E-05
99.5002	4.36E-05
99.7502	4.55E-05
100	4.65E-05
100.25	4.91E-05
100.5	5.22E-05
100.75	5.56E-05
101	5.20E-05
101.25	5.17E-05
101.5	5.29E-05
101.75	5.53E-05
102	5.70E-05
102.25	5.58E-05
102.5	5.65E-05
102.75	5.25E-05
103	5.87E-05
103.25	5.98E-05
103.5	6.37E-05
103.75	6.39E-05
104	6.22E-05
104.25	6.32E-05
104.5	6.96E-05
104.75	7.58E-05
105	8.18E-05
105.25	8.56E-05
105.5	9.47E-05
105.75	0.000102282
106	0.000106097
106.25	0.000115395
106.5	0.000124455
106.75	0.000134231
106.998	0.000140429
107.25	0.000143529
107.5	0.000146628
107.75	0.000140668
108	0.000115872
108.25	7.72E-05
108.5	4.98E-05
108.75	2.91E-05
109	1.76E-05
109.25	1.38E-05
109.5	1.26E-05
109.75	1.14E-05
110	1.24E-05
110.25	1.45E-05
110.5	1.31E-05
110.749	1.48E-05
111	1.22E-05
111.25	1.50E-05
111.5	1.14E-05
111.75	1.55E-05
112	1.14E-05
112.25	1.19E-05
112.5	1.38E-05
112.75	1.03E-05
113	9.30E-06
113.25	1.10E-05
113.5	1.26E-05
113.75	1.07E-05
114	9.06E-06
114.25	5.72E-06
114.5	1.31E-05
114.75	9.78E-06
115	1.10E-05
115.25	1.14E-05
115.5	9.78E-06
115.75	1.05E-05
116	1.05E-05
116.25	9.06E-06
116.5	1.31E-05
116.75	1.57E-05
117	1.10E-05
117.25	1.10E-05
117.5	1.22E-05
117.75	1.43E-05
118	1.31E-05
118.25	1.10E-05
118.5	1.07E-05
118.75	1.55E-05
119	1.34E-05
119.25	1.38E-05
119.5	1.55E-05
119.75	1.22E-05
120	1.60E-05
120	1.26E-05
-63.9987	0.000222922
-63.7487	0.000224114
-63.4987	0.000222922
-63.2487	0.000216723
-62.9987	0.000213147
-62.7487	0.000205041
-62.4987	0.00019908
-62.2487	0.000194789
-61.9987	0.000191451
-61.7487	0.000186921
-61.4987	0.000184775
-61.2487	0.00018716
-60.9987	0.000186921
-60.7487	0.000183583
-60.4987	0.000175
-60.2487	0.0001781
-59.9987	0.000176431
-59.7487	0.000176431
-59.4987	0.000174523
-59.2487	0.000172139
-58.9987	0.00017047
-58.7487	0.000169755
-58.4987	0.000173093
-58.2487	0.00016904
-57.9987	0.000168086
-57.7487	0.000169993
-57.4987	0.000163318
-57.2487	0.000167132
-56.9987	0.000168563
-56.7487	0.000167132
-56.4987	0.000166417
-56.2487	0.000167609
-55.9987	0.000169517
-55.7487	0.000166179
-55.4987	0.000165225
-55.2487	0.000168563
-54.9988	0.00016904
-54.7487	0.000165702
-54.4988	0.000163079
-54.2488	0.000164271
-53.9988	0.000166656
-53.7488	0.000169517
-53.4988	0.000168801
-53.2488	0.000167609
-52.9988	0.000166656
-52.7488	0.000166417
-52.4988	0.000167609
-52.2488	0.000168324
-51.9988	0.000169755
-51.7488	0.000168086
-51.4988	0.000167609
-51.25	0.000167848
-50.9988	0.000169278
-50.7488	0.000171185
-50.4988	0.000170232
-50.2488	0.00017047
-49.9988	0.000169993
-49.7488	0.000168801
-49.4988	0.000168324
-49.2488	0.000171424
-48.9988	0.000174523
-48.7488	0.000173808
-48.4988	0.000172854
-48.2488	0.000171662
-47.9988	0.000173093
-47.7488	0.00017357
-47.4988	0.000171185
-47.2488	0.000175239
-46.9988	0.000176669
-46.7488	0.000175715
-46.4988	0.000174046
-46.2501	0.000177146
-46.0003	0.000171185
-45.7503	0.000175477
-45.4988	0.000178576
-45.2488	0.000179769
-44.9988	0.000181676
-44.7488	0.000183106
-44.4988	0.000180484
-44.2488	0.00018263
-43.9988	0.000180007
-43.7488	0.000181676
-43.4988	0.000182391
-43.2488	0.000183106
-42.9988	0.000185967
-42.7489	0.000182153
-42.4989	0.00018406
-42.2489	0.000187636
-41.9989	0.00018406
-41.7489	0.000185729
-41.4989	0.000184298
-41.2489	0.000184298
-40.9989	0.00018859
-40.7489	0.000190021
-40.4989	0.000190974
-40.2489	0.000190259
-39.9989	0.000191451
-39.7489	0.000191451
-39.499	0.000189305
-39.2489	0.000193597
-38.9989	0.000192643
-38.7489	0.00019312
-38.4989	0.000197888
-38.2489	0.000197173
-37.9989	0.000195743
-37.7489	0.000200273
-37.4989	0.000199319
-37.2489	0.00019908
-36.9989	0.000201941
-36.7489	0.000198604
-36.4989	0.000201465
-36.2489	0.000201226
-35.9989	0.000200511
-35.7489	0.000203134
-35.4989	0.000201226
-35.2489	0.000201941
-34.9989	0.000204802
-34.7489	0.000205041
-34.4989	0.000204326
-34.2489	0.000207425
-33.9989	0.00020814
-33.7489	0.000206233
-33.4989	0.000205756
-33.2489	0.000210286
-32.9995	0.000208856
-32.7494	0.000211717
-32.4995	0.000210048
-32.2489	0.000209094
-31.9989	0.000211955
-31.7489	0.000213624
-31.4989	0.000213386
-31.2489	0.000214101
-30.9989	0.000216485
-30.7489	0.000213862
-30.4989	0.000214816
-30.2489	0.000212909
-29.999	0.000215054
-29.749	0.000215531
-29.499	0.000218631
-29.2489	0.000213624
-28.9992	0.000217916
-28.749	0.000218392
-28.499	0.000221015
-28.249	0.000217916
-27.999	0.000221015
-27.749	0.000220538
-27.499	0.000219823
-27.249	0.000218154
-26.999	0.000223399
-26.749	0.000224353
-26.499	0.000222445
-26.249	0.000221969
-25.999	0.000223638
-25.749	0.000224591
-25.499	0.000224114
-25.249	0.000227452
-24.999	0.000229121
-24.749	0.000227929
-24.499	0.000230313
-24.249	0.000228406
-23.999	0.000228168
-23.7491	0.000229121
-23.499	0.000231267
-23.249	0.000231744
-22.999	0.000233174
-22.749	0.000231982
-22.499	0.000231267
-22.249	0.000230313
-21.999	0.000231505
-21.749	0.000232459
-21.499	0.000234366
-21.249	0.000235797
-20.999	0.000236274
-20.749	0.00023532
-20.499	0.000236989
-20.249	0.000235558
-19.999	0.000234605
-19.749	0.00023842
-19.499	0.000237943
-19.249	0.000238658
-18.999	0.00023842
-18.749	0.000237704
-18.499	0.000237466
-18.249	0.000239135
-17.999	0.000239612
-17.749	0.000236751
-17.4991	0.000243426
-17.249	0.000239612
-16.9991	0.000239612
-16.749	0.00023985
-16.4991	0.000240565
-16.2491	0.000239373
-15.9991	0.000239373
-15.7491	0.000241757
-15.4991	0.000242949
-15.2491	0.000240804
-14.9991	0.000242473
-14.7491	0.000243903
-14.4991	0.000245573
-14.2491	0.000241042
-13.9991	0.000242473
-13.7491	0.00024605
-13.4991	0.000244619
-13.2491	0.000250818
-12.9991	0.000245335
-12.7491	0.000246765
-12.4991	0.000248434
-12.2491	0.000247719
-11.9991	0.000249626
-11.7491	0.000250103
-11.4991	0.000246527
-11.2491	0.000250103
-10.9991	0.000251295
-10.7491	0.000251295
-10.4991	0.000255348
-10.2491	0.000254394
-9.9991	0.00025201
-9.74911	0.000254394
-9.49911	0.000251533
-9.24911	0.000253679
-8.99911	0.000258209
-8.74911	0.000255587
-8.49912	0.000256302
-8.24911	0.000257971
-7.99912	0.000256779
-7.74911	0.000261547
-7.49912	0.000258448
-7.24913	0.000257017
-6.99913	0.000255587
-6.74913	0.00025654
-6.49913	0.000256779
-6.24914	0.000259401
-5.99913	0.000257971
-5.74914	0.000259163
-5.49914	0.000260117
-5.24914	0.000259401
-4.99915	0.000257971
-4.74915	0.000260117
-4.49915	0.000259401
-4.24915	0.000261547
-3.99915	0.000260593
-3.74915	0.000258686
-3.49915	0.000262024
-3.24916	0.000263931
-2.99916	0.000265123
-2.74917	0.000262978
-2.49916	0.000266315
-2.24917	0.000263454
-1.99916	0.000263931
-1.74917	0.000263931
-1.49917	0.000264646
-1.24918	0.000267746
-0.999176	0.000264646
-0.749176	0.000263454
-0.499184	0.000263454
-0.249176	0.000267269
0.000816345	0.000266315
0.250816	0.000267269
0.500809	0.000267746
0.750816	0.000267746
1.00081	0.000267031
1.2508	0.0002656
1.50081	0.000267984
1.7508	0.00027013
2.0008	0.000267508
2.2508	0.000269892
2.5008	0.000271084
2.75079	0.000272753
3.00079	0.000271799
3.25079	0.000269892
3.50079	0.000270369
3.75079	0.000271084
4.00079	0.000269415
4.25079	0.000269892
4.50078	0.000267508
4.75079	0.000267269
5.00078	0.000267984
5.25077	0.000267269
5.50078	0.000268938
5.75077	0.000267269
6.00077	0.000267269
6.25076	0.000268461
6.50077	0.000269176
6.75076	0.000269892
7.00077	0.000269415
7.25076	0.00027013
7.50076	0.000269892
7.75076	0.000271799
8.00076	0.000273468
8.25076	0.000274898
8.50075	0.000272753
8.75076	0.000272753
9.00075	0.000274422
9.25074	0.000275614
9.50075	0.000276329
9.75074	0.000277283
10.0007	0.000279667
10.2507	0.000278952
10.5007	0.000277283
10.7507	0.000277521
11.0007	0.000277283
11.2507	0.000280382
11.5007	0.000280144
11.7507	0.000279905
12.0007	0.000276091
12.2507	0.000279905
12.5007	0.000282289
12.7507	0.000284197
13.0007	0.000276806
13.2507	0.000278952
13.5007	0.000278475
13.7507	0.000280621
14.0007	0.000280144
14.2507	0.000277521
14.5	0.000276806
14.7507	0.000278475
15.0007	0.000278475
15.2507	0.000277521
15.5007	0.000275852
15.7507	0.000282289
16.0007	0.000278475
16.2507	0.000280144
16.5007	0.000276806
16.7507	0.000280859
17.0007	0.000281813
17.2507	0.000277521
17.5007	0.000277044
17.7507	0.000279428
18.0007	0.00027919
18.2507	0.000279905
18.5005	0.000280144
18.7507	0.000279428
19.0007	0.000279905
19.2507	0.000279905
19.5007	0.000281336
19.7507	0.000283482
20.0007	0.000280382
20.2507	0.000282289
20.5007	0.000282766
20.7507	0.000282766
21.0006	0.000284197
21.2506	0.000283482
21.5006	0.000281097
21.7506	0.000283243
22.0006	0.000286581
22.2506	0.000284435
22.5006	0.000286581
22.7506	0.000287058
23.0006	0.000287058
23.2506	0.000287058
23.5006	0.000289204
23.7506	0.000288488
24.0006	0.000288965
24.2506	0.000290157
24.5006	0.000290396
24.7506	0.000289204
25.0006	0.000291349
25.2506	0.000288727
25.5006	0.000288965
25.7506	0.00028825
26.0006	0.00029421
26.2506	0.000294926
26.5006	0.00028968
26.7506	0.000293257
27.0006	0.000293018
27.2506	0.000293972
27.5006	0.000295879
27.7506	0.000293018
28.0006	0.000296118
28.2506	0.000291588
28.5006	0.000293495
28.7506	0.000294926
29.0006	0.000290873
29.2506	0.000293972
29.4996	0.000296595
29.7497	0.000296118
29.9996	0.000295641
30.2506	0.000296118
30.4994	0.000297071
30.7498	0.000298264
31.0006	0.000296595
31.2506	0.000298025
31.5006	0.000299217
31.7506	0.000299932
32.0006	0.00030184
32.2506	0.000300648
32.5006	0.000300886
32.7506	0.000300409
33.0006	0.000298264
33.2506	0.00029874
33.5006	0.000299217
33.7506	0.000298502
34.0005	0.000302793
34.2505	0.000300886
34.5005	0.000305893
34.7505	0.000302793
35.0005	0.000306608
35.2505	0.000305416
35.5005	0.000305654
35.7505	0.000305893
36.0005	0.000306131
36.2505	0.000305416
36.5005	0.000310661
36.7505	0.000308516
37.0005	0.000305416
37.2505	0.000308039
37.5005	0.00030637
37.7505	0.000307323
38.0005	0.000307323
38.2505	0.000309469
38.5005	0.000309946
38.7505	0.000312807
39.0005	0.000313284
39.2504	0.000314476
39.5003	0.000308277
39.7505	0.000311853
40.0005	0.0003109
40.2505	0.000315191
40.5005	0.000311615
40.7505	0.000318291
41.0005	0.000316145
41.2505	0.000317814
41.5005	0.000318291
41.7505	0.000317099
42.0005	0.00031996
42.2505	0.000317099
42.5005	0.000320913
42.7505	0.000324966
43.0005	0.000323297
43.2505	0.00032592
43.5005	0.000322582
43.7505	0.000320198
44.0005	0.000322105
44.2505	0.000322582
44.5005	0.000322582
44.7505	0.000324966
45.0005	0.000328543
45.2505	0.000332834
45.5005	0.000333788
45.7505	0.000337364
46.0005	0.000332596
46.2505	0.00033498
46.5005	0.00033498
46.7505	0.000338795
47.0005	0.000338556
47.2505	0.000341656
47.5005	0.000338079
47.7504	0.000337126
48.0004	0.000335218
48.2504	0.000337603
48.5004	0.000342133
48.7504	0.000344994
49.0004	0.000347616
49.2504	0.000346424
49.5004	0.000350716
49.7504	0.000347855
50.0004	0.000358583
50.2504	0.000354769
50.5004	0.000351908
50.7504	0.000351431
51.0004	0.000355246
51.2504	0.000356914
51.5004	0.000358107
51.7504	0.000363113
52.0004	0.000366451
52.2504	0.000370027
52.5004	0.000370743
52.7497	0.00037575
52.9994	0.000377418
53.2504	0.000380279
53.5004	0.000388147
53.7504	0.000383856
54.0004	0.000384809
54.2504	0.000386955
54.5004	0.000389101
54.7504	0.0003953
55.0004	0.000400545
55.2504	0.000398876
55.5004	0.000401737
55.7504	0.000404121
56.0004	0.000408413
56.2504	0.00041342
56.5004	0.000418426
56.7499	0.00042391
57.0004	0.000428917
57.2504	0.000436069
57.5004	0.000436785
57.7504	0.000434401
58.0004	0.000434639
58.2504	0.000436785
58.5004	0.000444891
58.7504	0.000444176
59.0004	0.000451805
59.2504	0.000454189
59.5004	0.000460627
59.7504	0.000473501
60.0004	0.000478031
60.2503	0.000480415
60.5003	0.000484707
60.7503	0.000495438
61.0003	0.000499967
61.2503	0.000500921
61.5003	0.000503782
61.7503	0.000503067
62.0003	0.000508074
62.2503	0.000515465
62.5003	0.000527862
62.7503	0.00052977
63.0003	0.000543121
63.2503	0.000554804
63.5003	0.000572924
63.7503	0.000584606
64.0003	0.000592951
64.2503	0.000596289
64.5003	0.000597481
64.7503	0.000604156
65.0003	0.00061417
65.2503	0.000614408
65.5003	0.000618938
65.7503	0.000631336
66.0003	0.000646356
66.2503	0.000669722
66.5003	0.000688557
66.7503	0.000700478
67.0003	0.000711445
67.2503	0.000726942
67.5003	0.000739578
67.7503	0.000749353
68.0003	0.000756983
68.2503	0.000753168
68.5003	0.000775103
68.7503	0.00079513
69.0003	0.000801567
69.2503	0.000808243
69.5003	0.000809912
69.7503	0.00081015
70.0003	0.000817064
70.2503	0.000830892
70.5003	0.000855211
70.7503	0.000876192
71.0003	0.000895027
71.2503	0.00092626
71.5003	0.00094891
71.7502	0.000963215
72.0003	0.000965599
72.2503	0.000986107
72.5003	0.00101114
72.7503	0.00104237
73.0002	0.00104929
73.2502	0.00104929
73.5002	0.00106765
73.7502	0.00109292
74.0002	0.00113083
74.2484	0.00113655
74.5002	0.00110508
74.7502	0.00111509
75.0002	0.0011561
75.2502	0.00117255
75.5002	0.00118304
75.7502	0.00115157
76.0002	0.00115133
76.2502	0.00113583
76.5002	0.00113154
76.7502	0.0011325
77.0002	0.00114823
77.2502	0.00116373
77.5002	0.00119329
77.7502	0.00123239
78.0002	0.00124765
78.2502	0.00120736
78.5002	0.00116921
78.7502	0.00114275
79.0002	0.0011294
79.2502	0.0011406
79.5002	0.00115538
79.7502	0.00118018
80.0002	0.00114752
80.2502	0.0011282
80.5002	0.00113941
80.7502	0.00117851
81.0002	0.00116921
81.2502	0.00113798
81.5002	0.00110389
81.7502	0.0011046
82.0002	0.00110675
82.2502	0.00105263
82.5002	0.0010059
82.7502	0.000944618
83.0002	0.000942472
83.2502	0.000910763
83.5002	0.000851873
83.7502	0.000687603
84.0002	0.000472309
84.2502	0.000272514
84.5002	0.000150205
84.7502	9.66E-05
85.0002	7.65E-05
85.2502	7.32E-05
85.5002	7.15E-05
85.7502	7.10E-05
86.0001	6.51E-05
86.2501	6.46E-05
86.5001	6.27E-05
86.7501	6.37E-05
87.0001	6.68E-05
87.2501	6.41E-05
87.5001	6.39E-05
87.7501	6.20E-05
88.0001	6.44E-05
88.2501	6.37E-05
88.5001	7.08E-05
88.7501	7.13E-05
89.0001	7.10E-05
89.2501	7.15E-05
89.5001	7.63E-05
89.7501	7.53E-05
90.0001	8.30E-05
90.2501	8.73E-05
90.5001	9.56E-05
90.7501	0.000105381
91.0001	0.000112057
91.2501	0.000119448
91.5001	0.0001328
91.7501	0.000138761
92.0001	0.000149966
92.2501	0.000150681
92.5001	0.000161172
92.7501	0.00016594
93.0001	0.000177623
93.2501	0.000177384
93.5001	0.000177384
93.7501	0.000181199
94.0001	0.000179292
94.2501	0.000172616
94.5001	0.000169517
94.7501	0.000179769
95	0.000192405
95.2501	0.000203134
95.5001	0.000208379
95.7501	0.000223399
96.0001	0.000238658
96.2501	0.000252964
96.5001	0.000255587
96.7501	0.000261309
97.0001	0.000271799
97.2501	0.000287773
97.5001	0.000304939
97.7501	0.000304939
98.0001	0.000279905
98.2501	0.000211955
98.5001	0.000134469
98.75	6.49E-05
99	2.98E-05
99.25	1.62E-05
99.5	1.26E-05
99.75	1.36E-05
100	1.05E-05
100.25	1.17E-05
100.5	8.58E-06
100.75	7.15E-06
101	9.78E-06
101.25	8.58E-06
101.5	1.05E-05
101.75	1.03E-05
102	1.12E-05
102.25	1.19E-05
102.5	1.22E-05
102.75	1.41E-05
103	1.22E-05
103.25	1.38E-05
103.5	1.34E-05
103.75	1.26E-05
104	1.31E-05
104.25	1.29E-05
104.5	1.84E-05
104.75	1.69E-05
105	1.48E-05
105	1.38E-05
