Photodiode Viewing Angle (Degrees) - Plot 0	Lock-in Signal Amplitude (V) - Plot 0
-18.9987	0.000115872
-18.7487	0.000116587
-18.4987	0.000117302
-18.2487	0.000114441
-17.9988	0.000116826
-17.7487	0.000113726
-17.4989	0.000109196
-17.249	0.000113249
-16.9989	0.000109673
-16.7491	0.000112772
-16.4987	0.000107527
-16.2487	0.000109911
-15.9987	0.00010705
-15.7487	0.000112057
-15.4987	0.000109196
-15.2487	0.000106097
-14.9987	0.000108958
-14.7487	0.000106812
-14.4987	0.000106812
-14.2487	0.000104905
-13.9987	0.000106574
-13.7487	0.000103474
-13.4987	0.000103951
-13.2487	0.000103951
-12.9987	0.000102759
-12.7487	0.000103713
-12.4987	9.92E-05
-12.2487	9.97E-05
-11.9987	0.000100136
-11.7487	0.000102759
-11.4988	0.000100136
-11.2487	0.000102759
-10.9987	0.000100613
-10.7487	0.000100375
-10.4987	9.97E-05
-10.2487	9.97E-05
-9.99876	9.94E-05
-9.74875	9.82E-05
-9.49876	9.68E-05
-9.24876	9.42E-05
-8.99876	9.94E-05
-8.74876	9.63E-05
-8.49876	9.70E-05
-8.24878	9.47E-05
-7.99876	9.54E-05
-7.74878	9.61E-05
-7.49878	9.73E-05
-7.24878	9.73E-05
-6.99884	9.63E-05
-6.74878	9.80E-05
-6.49878	9.70E-05
-6.24878	9.75E-05
-5.99879	9.42E-05
-5.74878	9.54E-05
-5.49879	9.54E-05
-5.24879	9.61E-05
-4.99879	9.37E-05
-4.74879	9.30E-05
-4.49879	9.78E-05
-4.24879	9.32E-05
-3.99879	9.13E-05
-3.74881	9.44E-05
-3.49881	9.58E-05
-3.24881	9.49E-05
-2.99881	9.51E-05
-2.74881	9.47E-05
-2.49881	9.63E-05
-2.24881	9.56E-05
-1.99883	9.37E-05
-1.74883	9.63E-05
-1.49883	9.42E-05
-1.24883	9.42E-05
-0.998825	9.35E-05
-0.748825	9.23E-05
-0.498825	9.63E-05
-0.248825	9.37E-05
0.00117493	9.32E-05
0.25116	9.37E-05
0.50116	9.35E-05
0.75116	9.27E-05
1.00116	9.27E-05
1.25116	9.44E-05
1.50116	9.27E-05
1.75116	9.35E-05
2.00116	9.30E-05
2.25114	9.73E-05
2.50114	9.35E-05
2.75114	9.56E-05
3.00114	9.39E-05
3.25114	9.47E-05
3.50114	9.56E-05
3.75114	9.16E-05
4.00113	9.51E-05
4.24983	9.35E-05
4.49974	9.42E-05
4.7498	9.30E-05
5.00113	9.54E-05
5.25113	9.85E-05
5.50113	9.42E-05
5.75111	9.49E-05
6.00113	9.63E-05
6.25111	9.56E-05
6.50111	9.63E-05
6.75111	9.51E-05
7.00111	9.87E-05
7.25111	9.47E-05
7.50111	9.58E-05
7.75111	9.56E-05
8.0011	0.00010109
8.25111	9.87E-05
8.5011	9.66E-05
8.7511	9.78E-05
9.0011	0.000102282
9.2511	0.000100136
9.5011	9.99E-05
9.75108	9.82E-05
10.0011	9.63E-05
10.2511	9.89E-05
10.5011	0.00010109
10.7511	9.97E-05
11.0011	9.85E-05
11.2509	0.000100852
11.5011	0.000103474
11.7511	0.000104428
12.0011	0.000101567
12.2511	0.000102997
12.5011	0.000104428
12.7511	0.000103951
13.0011	0.000102759
13.2511	0.000104428
13.5011	0.000105143
13.7511	0.000102044
14.0011	0.000104428
14.2511	0.000107289
14.5011	0.000104428
14.7511	0.000105143
15.0011	0.000107289
15.2511	0.000106335
15.501	0.000108958
15.7511	0.000104666
16.001	0.000106812
16.251	0.000108481
16.501	0.000106097
16.751	0.000105381
17.001	0.000107527
17.251	0.000110865
17.501	0.000111104
17.751	0.000107289
18.001	0.00010562
18.251	0.000107766
18.501	0.000107766
18.7487	0.000111104
19.001	0.000108958
19.251	0.000110627
19.501	0.000110627
19.751	0.000114203
20.001	0.000113488
20.251	0.000112772
20.501	0.000113965
20.751	0.000112534
21.001	0.000115872
21.251	0.000114441
21.501	0.000115395
21.751	0.000115157
22.001	0.000113726
22.251	0.000113965
22.4995	0.000116349
22.7499	0.00011611
22.9994	0.00011611
23.251	0.000117064
23.501	0.000118256
23.751	0.00012231
24.001	0.000118256
24.251	0.000119925
24.501	0.000118971
24.751	0.000122786
25.001	0.000122786
25.2507	0.00012064
25.501	0.00012064
25.751	0.000120163
26.001	0.00012064
26.251	0.000118733
26.501	0.000119687
26.751	0.000117541
27.001	0.000118971
27.251	0.000118971
27.5009	0.000123263
27.751	0.000119687
28.0009	0.000117302
28.251	0.000119925
28.5009	0.000121356
28.7509	0.000119448
29.0009	0.000119448
29.2509	0.000118971
29.5009	0.000118733
29.7509	0.000117541
30.0009	0.000116349
30.2509	0.00011921
30.5009	0.000113249
30.7509	0.000113965
31.0009	0.000109673
31.2509	0.00011015
31.5009	0.000106574
31.7509	0.00011015
32.0009	0.000108958
32.2509	0.000107289
32.5009	0.000107766
32.7509	0.000107766
33.0009	0.000108004
33.2509	0.000106097
33.5009	0.000103951
33.7509	0.000102997
34.0009	0.00010109
34.2509	0.000104428
34.5009	0.000103713
34.7509	0.000100852
35.0009	0.000100613
35.2509	0.000100136
35.5009	9.58E-05
35.7509	9.68E-05
36.0009	9.73E-05
36.2509	9.39E-05
36.5009	9.51E-05
36.7509	9.54E-05
37.0009	9.37E-05
37.2509	9.23E-05
37.5009	9.47E-05
37.7509	9.30E-05
38.0009	8.87E-05
38.2509	9.08E-05
38.5009	8.94E-05
38.7509	9.23E-05
39.0009	8.34E-05
39.2509	8.32E-05
39.5009	8.34E-05
39.7509	8.23E-05
40.0009	8.08E-05
40.2509	8.25E-05
40.5008	8.23E-05
40.7509	8.46E-05
41.0008	8.30E-05
41.2508	7.84E-05
41.5008	8.01E-05
41.7508	7.70E-05
42.0008	8.01E-05
42.2508	7.65E-05
42.5008	7.89E-05
42.7508	7.82E-05
43.0008	7.32E-05
43.2497	7.58E-05
43.5008	7.41E-05
43.7508	6.99E-05
44.0008	6.89E-05
44.2508	6.96E-05
44.5008	7.49E-05
44.7508	6.77E-05
45.0008	6.87E-05
45.2508	6.96E-05
45.5008	6.82E-05
45.7508	6.41E-05
46.0008	6.65E-05
46.2508	6.46E-05
46.5008	6.41E-05
46.7508	6.58E-05
47.0008	6.41E-05
47.2508	6.25E-05
47.5008	6.53E-05
47.7508	6.34E-05
48.0008	6.39E-05
48.2508	6.25E-05
48.5008	5.98E-05
48.7508	5.89E-05
49.0008	5.70E-05
49.2508	6.01E-05
49.5008	5.70E-05
49.7508	5.70E-05
50.0008	5.96E-05
50.2508	5.79E-05
50.5008	6.01E-05
50.7506	5.75E-05
51.0008	5.75E-05
51.2508	5.56E-05
51.5008	5.39E-05
51.7508	5.53E-05
52.0008	5.15E-05
52.2508	4.91E-05
52.5008	5.25E-05
52.7508	5.05E-05
53.0008	4.84E-05
53.2508	4.82E-05
53.5007	4.91E-05
53.7508	4.84E-05
54.0007	4.65E-05
54.2507	4.53E-05
54.5007	4.74E-05
54.7507	4.29E-05
55.0007	4.58E-05
55.2507	4.65E-05
55.5007	4.74E-05
55.7507	4.67E-05
56.0007	4.55E-05
56.2507	4.43E-05
56.5007	4.32E-05
56.7507	4.53E-05
57.0007	4.20E-05
57.2507	4.48E-05
57.5007	4.24E-05
57.7507	4.15E-05
58.0007	3.67E-05
58.2507	4.12E-05
58.5007	3.98E-05
58.7507	3.77E-05
59.0007	4.01E-05
59.2507	3.89E-05
59.5007	3.81E-05
59.7502	3.72E-05
60.0007	3.60E-05
60.2507	3.43E-05
60.5007	3.65E-05
60.7507	3.27E-05
61.0007	3.55E-05
61.2507	3.48E-05
61.5007	3.41E-05
61.7507	3.53E-05
62.0007	3.43E-05
62.2507	3.24E-05
62.5007	2.86E-05
62.7507	3.19E-05
63.0007	3.10E-05
63.2507	2.86E-05
63.5007	3.00E-05
63.7507	3.10E-05
64.0007	2.86E-05
64.2507	3.08E-05
64.5007	3.15E-05
64.7507	2.77E-05
65.0007	2.91E-05
65.2507	2.69E-05
65.5007	2.74E-05
65.7507	2.69E-05
66.0006	2.48E-05
66.2496	2.69E-05
66.5006	2.60E-05
66.7506	2.19E-05
67.0006	2.24E-05
67.2506	2.12E-05
67.5006	2.31E-05
67.7506	2.22E-05
68.0006	2.46E-05
68.2506	2.26E-05
68.5006	2.00E-05
68.7506	2.07E-05
69.0006	2.03E-05
69.2506	2.46E-05
69.5006	2.10E-05
69.7506	1.69E-05
70.0006	2.10E-05
70.2506	1.93E-05
70.5006	1.98E-05
70.7506	2.00E-05
71.0006	1.81E-05
71.2506	2.31E-05
71.5006	2.15E-05
71.7506	2.10E-05
72.0006	1.86E-05
72.2506	1.53E-05
72.5006	2.03E-05
72.7506	1.93E-05
73.0006	1.67E-05
73.2505	1.60E-05
73.5006	2.00E-05
73.7506	1.72E-05
74.0006	2.15E-05
74.2506	1.69E-05
74.5006	1.81E-05
74.7506	1.72E-05
75.0006	1.57E-05
75.2506	1.98E-05
75.5006	1.88E-05
75.7506	1.72E-05
76.0006	1.67E-05
76.2506	1.62E-05
76.5006	1.86E-05
76.7506	1.98E-05
77.0006	1.72E-05
77.2506	1.79E-05
77.5006	1.84E-05
77.7505	1.81E-05
78.0003	2.05E-05
78.2506	1.65E-05
78.5006	1.67E-05
78.7506	1.98E-05
79.0005	1.96E-05
79.2505	1.81E-05
79.5005	2.03E-05
79.7505	1.57E-05
80.0005	1.60E-05
80.2505	1.84E-05
80.5005	1.65E-05
80.7505	1.72E-05
81.0005	1.81E-05
81.2505	1.79E-05
81.5005	1.84E-05
81.7505	1.65E-05
82.0005	1.81E-05
82.2505	1.93E-05
82.5005	1.74E-05
82.7505	1.86E-05
83.0005	1.86E-05
83.2505	2.05E-05
83.5005	2.15E-05
83.7505	2.03E-05
84.0005	2.03E-05
84.2505	2.53E-05
84.5005	2.36E-05
84.7505	2.53E-05
85.0005	2.10E-05
85.2505	2.24E-05
85.5005	2.53E-05
85.7505	2.60E-05
86.0005	2.46E-05
86.2505	2.10E-05
86.5005	2.36E-05
86.7505	2.05E-05
87.0005	2.38E-05
87.2505	2.26E-05
87.5005	2.36E-05
87.7505	2.03E-05
88.0005	2.31E-05
88.2499	2.19E-05
88.5005	2.19E-05
88.7505	2.15E-05
89.0005	2.43E-05
89.2505	2.10E-05
89.5005	2.24E-05
89.7505	2.22E-05
90.0005	2.24E-05
90.2505	2.22E-05
90.5005	2.15E-05
90.7505	2.12E-05
91.0005	2.29E-05
91.2505	2.10E-05
91.5005	2.00E-05
91.7505	1.93E-05
92.0005	2.17E-05
92.2505	2.03E-05
92.5005	2.31E-05
92.7504	1.93E-05
92.9996	1.62E-05
93.2496	1.76E-05
93.5004	1.88E-05
93.7504	1.91E-05
94.0004	1.88E-05
94.2504	1.98E-05
94.5004	1.84E-05
94.7504	1.81E-05
95.0004	1.98E-05
95.2504	1.81E-05
95.5004	1.98E-05
95.7504	1.69E-05
96.0004	1.93E-05
96.2504	1.65E-05
96.5004	2.05E-05
96.7504	1.69E-05
97.0004	1.84E-05
97.2504	1.76E-05
97.5004	1.86E-05
97.7504	1.67E-05
98.0004	1.91E-05
98.2504	1.57E-05
98.5004	1.81E-05
98.7504	1.76E-05
99.0004	1.91E-05
99.2504	1.86E-05
99.5004	1.69E-05
99.7504	1.55E-05
100	1.74E-05
100.25	1.74E-05
100.5	1.65E-05
100.75	1.81E-05
101	1.65E-05
101.25	1.76E-05
101.5	1.76E-05
101.75	1.53E-05
102	1.84E-05
102.25	1.34E-05
102.5	1.29E-05
102.75	1.55E-05
103	1.55E-05
103.25	1.53E-05
103.5	1.55E-05
103.75	1.26E-05
104	1.24E-05
104.25	1.26E-05
104.5	1.26E-05
104.75	1.34E-05
105	1.17E-05
105.25	1.10E-05
105.5	9.78E-06
105.75	1.10E-05
106	9.78E-06
106.25	9.78E-06
106.5	1.22E-05
106.75	9.78E-06
107	1.22E-05
107.25	1.10E-05
107.5	8.11E-06
107.75	8.34E-06
108	7.39E-06
108.25	9.78E-06
108.5	7.63E-06
108.75	5.96E-06
109	9.78E-06
109.25	6.20E-06
109.5	6.91E-06
109.75	9.54E-06
110	5.96E-06
110.25	6.44E-06
110.5	9.78E-06
110.75	7.15E-06
111	5.48E-06
111.25	8.82E-06
111.5	6.44E-06
111.75	5.96E-06
112	9.54E-06
112.25	3.10E-06
112.499	6.20E-06
112.75	8.82E-06
113	4.53E-06
113.249	4.77E-06
113.499	4.05E-06
113.75	5.48E-06
114	6.20E-06
114.25	5.72E-06
114.5	2.86E-06
114.75	4.77E-06
115	4.77E-06
115.25	5.72E-06
115.5	5.96E-06
115.75	1.19E-06
116	2.62E-06
116.25	4.29E-06
116.5	3.58E-06
116.75	2.62E-06
117	2.38E-06
117.25	5.72E-06
117.5	1.67E-06
117.75	4.29E-06
118	5.25E-06
118.25	5.96E-06
118.5	3.58E-06
118.75	4.77E-06
119	3.81E-06
119.25	1.19E-06
119.5	3.81E-06
119.75	3.10E-06
120	6.68E-06
120.25	6.44E-06
120.5	4.29E-06
120.75	6.91E-06
121	3.10E-06
121.25	6.20E-06
121.5	5.96E-06
121.75	6.20E-06
122	5.72E-06
122.25	4.77E-06
122.5	2.86E-06
122.75	6.20E-06
123	5.48E-06
123.25	7.15E-06
123.5	6.20E-06
123.75	5.25E-06
124	5.72E-06
124.25	5.25E-06
124.5	3.81E-06
124.75	5.01E-06
125	4.05E-06
125.25	2.15E-06
125.5	4.77E-06
125.75	3.10E-06
126	4.77E-06
126.25	4.29E-06
126.5	5.01E-06
126.75	2.15E-06
127	5.96E-06
127.25	5.48E-06
127.5	3.81E-06
127.75	2.15E-06
128	5.96E-06
128.25	5.25E-06
128.5	3.10E-06
128.75	3.81E-06
129	2.62E-06
129.25	4.05E-06
129.5	5.96E-06
129.75	3.10E-06
130	2.62E-06
130.25	4.29E-06
130.5	3.81E-06
130.75	6.44E-06
131	9.54E-07
131.25	4.53E-06
131.5	2.15E-06
131.75	4.05E-06
132	2.15E-06
132.25	4.29E-06
132.5	5.48E-06
132.75	3.81E-06
133	2.38E-06
133.25	4.77E-06
133.5	4.29E-06
133.75	7.15E-06
134	3.10E-06
134.25	5.72E-06
134.5	5.48E-06
134.75	3.81E-06
135	4.77E-06
135.25	4.77E-06
135.5	5.25E-06
135.75	8.82E-06
136	2.62E-06
136.25	4.05E-06
136.5	2.15E-06
136.75	5.01E-06
137	5.96E-06
137.25	5.96E-06
137.5	2.86E-06
137.75	5.48E-06
138	2.62E-06
138.25	5.96E-06
138.499	6.44E-06
138.749	5.48E-06
138.999	6.44E-06
139.249	4.29E-06
139.499	6.68E-06
139.749	5.72E-06
140	6.20E-06
140.25	3.58E-06
140.5	5.48E-06
140.75	8.11E-06
141	7.63E-06
141.25	9.30E-06
141.5	7.87E-06
141.75	9.06E-06
142	6.91E-06
142.25	1.07E-05
142.5	1.31E-05
142.75	1.50E-05
143	1.43E-05
143.25	1.10E-05
143.5	1.38E-05
143.75	1.12E-05
144	1.26E-05
144.25	1.22E-05
144.5	1.10E-05
144.75	1.00E-05
145	8.11E-06
145.25	9.78E-06
145.5	1.45E-05
145.75	1.05E-05
146	1.43E-05
146.25	1.36E-05
146.5	1.36E-05
146.75	1.60E-05
147	1.53E-05
147.25	1.41E-05
147.5	1.53E-05
147.75	1.41E-05
148	1.53E-05
148.25	1.60E-05
148.5	1.12E-05
148.749	1.86E-05
149	1.31E-05
149.25	1.86E-05
149.5	1.65E-05
149.75	1.57E-05
150	1.86E-05
150	1.81E-05
-33.9987	0.000102759
-33.7487	0.000100375
-33.4987	9.73E-05
-33.2488	9.63E-05
-32.9989	9.56E-05
-32.7489	9.39E-05
-32.4988	9.39E-05
-32.2489	9.27E-05
-31.9992	9.39E-05
-31.7487	9.35E-05
-31.4987	9.51E-05
-31.2487	9.06E-05
-30.9987	9.18E-05
-30.7487	9.06E-05
-30.4987	9.32E-05
-30.2487	9.42E-05
-29.9987	9.35E-05
-29.7487	9.25E-05
-29.4987	9.06E-05
-29.2487	9.23E-05
-28.9987	9.35E-05
-28.7487	9.16E-05
-28.4988	8.77E-05
-28.2489	8.96E-05
-27.9989	9.01E-05
-27.749	8.99E-05
-27.4987	8.58E-05
-27.2487	8.51E-05
-26.9987	8.77E-05
-26.7487	8.68E-05
-26.4987	8.56E-05
-26.2487	8.68E-05
-25.9987	8.51E-05
-25.7487	8.89E-05
-25.4987	8.92E-05
-25.2487	8.61E-05
-24.9988	8.68E-05
-24.7487	8.73E-05
-24.4988	8.32E-05
-24.2488	8.63E-05
-23.9988	8.56E-05
-23.7488	8.25E-05
-23.4988	8.56E-05
-23.2488	8.39E-05
-22.9988	8.08E-05
-22.7488	8.68E-05
-22.4988	8.51E-05
-22.2488	8.18E-05
-21.9988	8.61E-05
-21.7488	8.65E-05
-21.4988	8.65E-05
-21.2488	8.44E-05
-20.9988	8.30E-05
-20.7488	8.44E-05
-20.4988	8.39E-05
-20.2488	8.44E-05
-19.9988	8.73E-05
-19.7488	8.25E-05
-19.4988	8.61E-05
-19.2488	8.39E-05
-18.9988	8.65E-05
-18.7488	8.63E-05
-18.4988	8.49E-05
-18.2488	8.32E-05
-17.9988	8.39E-05
-17.7488	8.11E-05
-17.4988	8.18E-05
-17.2488	8.08E-05
-16.9988	8.42E-05
-16.7488	8.54E-05
-16.4988	8.44E-05
-16.2488	8.56E-05
-15.9988	8.54E-05
-15.7488	8.51E-05
-15.4988	8.58E-05
-15.2488	8.46E-05
-14.9988	8.73E-05
-14.7488	8.51E-05
-14.4988	8.87E-05
-14.2488	8.37E-05
-13.9988	8.44E-05
-13.7488	8.44E-05
-13.4988	8.27E-05
-13.2488	8.70E-05
-12.9988	8.75E-05
-12.7489	8.27E-05
-12.4989	8.63E-05
-12.2489	8.51E-05
-11.9989	8.46E-05
-11.7489	8.61E-05
-11.4989	8.49E-05
-11.2489	8.34E-05
-10.9989	8.39E-05
-10.7489	8.34E-05
-10.4989	8.32E-05
-10.2489	8.25E-05
-9.99887	8.39E-05
-9.74887	8.32E-05
-9.49887	8.46E-05
-9.24889	8.30E-05
-8.99887	8.30E-05
-8.74889	8.30E-05
-8.49889	8.73E-05
-8.24889	8.77E-05
-7.99889	8.73E-05
-7.74889	8.46E-05
-7.49889	8.46E-05
-7.24889	8.73E-05
-6.9989	8.49E-05
-6.74889	8.70E-05
-6.4989	8.80E-05
-6.2489	8.77E-05
-5.9989	8.54E-05
-5.7489	8.68E-05
-5.4989	9.18E-05
-5.24892	8.49E-05
-4.9989	8.77E-05
-4.74892	8.82E-05
-4.49892	9.23E-05
-4.25024	8.87E-05
-3.99892	8.70E-05
-3.74892	9.16E-05
-3.49893	8.63E-05
-3.24892	8.75E-05
-2.99893	8.56E-05
-2.74892	8.85E-05
-2.49893	8.87E-05
-2.24893	9.04E-05
-1.99893	8.75E-05
-1.74893	8.87E-05
-1.49925	8.96E-05
-1.24895	8.85E-05
-0.998932	8.85E-05
-0.748947	8.85E-05
-0.498947	8.85E-05
-0.248947	8.46E-05
0.00105286	9.01E-05
0.251053	8.68E-05
0.501038	8.56E-05
0.751053	8.80E-05
1.00104	8.89E-05
1.25104	8.92E-05
1.50104	8.87E-05
1.75104	8.85E-05
2.00104	8.56E-05
2.25102	8.89E-05
2.50104	8.82E-05
2.75102	8.70E-05
3.00104	8.56E-05
3.25102	8.85E-05
3.50102	8.56E-05
3.75102	8.34E-05
4.00102	8.92E-05
4.25102	8.65E-05
4.50101	8.70E-05
4.75102	8.25E-05
5.00101	8.51E-05
5.25101	8.27E-05
5.50101	8.42E-05
5.75101	8.44E-05
6.00101	8.34E-05
6.25099	8.13E-05
6.50101	8.18E-05
6.75099	8.20E-05
7.001	8.34E-05
7.25099	8.06E-05
7.501	8.30E-05
7.75099	8.30E-05
8.00098	8.56E-05
8.25098	8.68E-05
8.50098	8.42E-05
8.75098	8.56E-05
9.00098	8.51E-05
9.25098	8.39E-05
9.50098	8.54E-05
9.75098	8.65E-05
10.001	8.80E-05
10.251	8.34E-05
10.501	8.34E-05
10.751	8.54E-05
11.001	8.46E-05
11.251	8.46E-05
11.501	8.34E-05
11.751	8.06E-05
12.001	8.23E-05
12.251	8.51E-05
12.5009	8.03E-05
12.751	8.37E-05
13.0009	8.34E-05
13.251	8.32E-05
13.5009	8.34E-05
13.7509	8.39E-05
14.0009	8.25E-05
14.2509	8.27E-05
14.5009	8.37E-05
14.7509	8.46E-05
15.0009	8.39E-05
15.2509	8.51E-05
15.5009	8.56E-05
15.7509	8.51E-05
16.0009	8.70E-05
16.2509	8.34E-05
16.5009	8.23E-05
16.7509	8.01E-05
17.0009	8.18E-05
17.2509	8.39E-05
17.5009	8.30E-05
17.7509	8.73E-05
18.0009	8.46E-05
18.2509	8.34E-05
18.5009	8.65E-05
18.7509	8.73E-05
19.0009	8.73E-05
19.2509	8.87E-05
19.5009	8.46E-05
19.7509	8.70E-05
20.0009	8.46E-05
20.2509	8.46E-05
20.5009	8.61E-05
20.7509	8.46E-05
21.0009	8.46E-05
21.2509	8.61E-05
21.5009	8.08E-05
21.7509	8.39E-05
22.0009	8.73E-05
22.2509	8.94E-05
22.5009	8.65E-05
22.7509	8.46E-05
23.0009	8.82E-05
23.2509	8.85E-05
23.5009	8.56E-05
23.7509	8.82E-05
24.0009	8.70E-05
24.2509	8.68E-05
24.5009	8.89E-05
24.7509	8.68E-05
25.0009	9.04E-05
25.2509	8.85E-05
25.5008	8.96E-05
25.7509	9.01E-05
26.0008	9.08E-05
26.2508	9.18E-05
26.5008	9.44E-05
26.7494	9.18E-05
26.9994	9.04E-05
27.2498	9.13E-05
27.5008	9.35E-05
27.7508	9.39E-05
28.0008	9.30E-05
28.2508	9.56E-05
28.5008	9.78E-05
28.7508	9.97E-05
29.0008	9.63E-05
29.2508	9.89E-05
29.5008	9.82E-05
29.7508	0.000100613
30.0008	0.000100136
30.2508	0.000103713
30.5008	0.000104428
30.7508	0.000103951
31.0008	0.000104666
31.2508	0.000104428
31.5008	0.000105143
31.7508	0.00010562
32.0008	0.000105143
32.2508	0.000105143
32.4991	0.000106812
32.7489	0.000111104
32.9985	0.000113488
33.2484	0.000112534
33.5008	0.000110865
33.7508	0.000109196
34.0008	0.000111819
34.2508	0.000110627
34.5008	0.000116826
34.7508	0.00011611
35.0008	0.000119925
35.2508	0.000123502
35.5008	0.000129224
35.7508	0.000127316
36.0008	0.00012684
36.2508	0.000129701
36.5008	0.000128032
36.7508	0.000129701
37.0008	0.000127793
37.2508	0.00012827
37.5008	0.000127555
37.7508	0.000130416
38.0008	0.000128509
38.2508	0.000134469
38.5007	0.000133277
38.7508	0.000134946
39.0007	0.000135423
39.2507	0.000132323
39.5007	0.000134707
39.7507	0.000139237
40.0007	0.000138284
40.2507	0.000137807
40.5007	0.000140429
40.7507	0.000141622
41.0007	0.000143052
41.2507	0.000142337
41.5007	0.000144244
41.7507	0.000145675
42.0007	0.000145675
42.2507	0.00014782
42.5007	0.000145436
42.7507	0.000145675
43.0007	0.000145436
43.2507	0.000143052
43.5007	0.000142098
43.7507	0.000145436
44.0007	0.000146152
44.2507	0.000149489
44.5007	0.000152589
44.7507	0.000148297
45.0007	0.000152589
45.2507	0.00014782
45.5007	0.000145436
45.7507	0.000142814
46	0.000144244
46.25	0.000147582
46.4995	0.000145913
46.7495	0.000150443
47.0007	0.000147105
47.2507	0.000146152
47.5007	0.000139237
47.7507	0.000134231
48.0007	0.000134231
48.2507	0.000133277
48.5007	0.000127078
48.7507	0.000125409
49.0007	0.000122071
49.2507	0.000125171
49.5007	0.000126124
49.7507	0.00012827
50.0007	0.000126601
50.2507	0.000124932
50.5007	0.000119925
50.7507	0.000117302
51.0006	0.000118256
51.2506	0.000115395
51.5006	0.000113488
51.7506	0.000113488
52.0006	0.000113965
52.2506	0.00011158
52.5006	0.000109911
52.7506	0.00010562
53.0006	0.000103951
53.2506	0.000102997
53.5006	0.000104189
53.7506	0.000103951
54.0006	9.92E-05
54.2506	9.70E-05
54.5006	9.70E-05
54.7506	9.80E-05
55.0006	9.20E-05
55.2506	8.96E-05
55.5006	9.27E-05
55.7506	8.77E-05
56.0006	8.85E-05
56.2506	8.82E-05
56.5006	8.27E-05
56.7506	8.56E-05
57.0006	8.85E-05
57.2506	8.70E-05
57.5006	8.39E-05
57.7506	7.68E-05
58.0006	7.61E-05
58.2506	7.39E-05
58.5006	7.37E-05
58.7506	7.32E-05
59.0006	7.32E-05
59.2506	7.10E-05
59.5006	7.08E-05
59.7506	7.30E-05
60.0006	7.08E-05
60.2506	6.72E-05
60.5006	6.58E-05
60.7506	6.68E-05
61.0006	6.53E-05
61.2506	6.32E-05
61.5006	6.13E-05
61.7506	5.72E-05
62.0006	5.58E-05
62.2506	5.58E-05
62.5006	5.89E-05
62.7506	5.79E-05
63.0006	5.36E-05
63.2506	5.46E-05
63.5006	5.29E-05
63.7506	5.32E-05
64.0005	5.44E-05
64.2505	5.29E-05
64.5005	5.27E-05
64.7505	5.05E-05
65.0005	4.91E-05
65.2505	4.46E-05
65.5005	4.60E-05
65.7505	4.29E-05
66.0005	4.51E-05
66.2505	4.32E-05
66.5005	4.51E-05
66.7505	4.60E-05
67.0005	4.22E-05
67.2505	4.22E-05
67.5005	4.22E-05
67.7505	3.98E-05
68.0005	3.93E-05
68.2505	4.03E-05
68.5005	4.10E-05
68.7505	3.84E-05
69.0005	3.74E-05
69.2505	3.81E-05
69.5001	3.22E-05
69.75	3.31E-05
70.0005	3.27E-05
70.2505	3.22E-05
70.5005	3.29E-05
70.7505	3.31E-05
71.0005	3.22E-05
71.2505	3.15E-05
71.5005	3.27E-05
71.7505	3.10E-05
72.0005	3.24E-05
72.2504	2.93E-05
72.5005	2.79E-05
72.7505	2.62E-05
73.0005	2.53E-05
73.2505	2.53E-05
73.5005	2.67E-05
73.7505	2.57E-05
74.0005	2.69E-05
74.2505	2.43E-05
74.5005	2.48E-05
74.7505	2.48E-05
74.9993	2.15E-05
75.2487	2.34E-05
75.5005	2.34E-05
75.7505	2.00E-05
76.0005	2.15E-05
76.2505	1.96E-05
76.5005	2.03E-05
76.7505	1.93E-05
77.0005	2.07E-05
77.2505	1.81E-05
77.5005	1.98E-05
77.7504	1.93E-05
78.0004	1.84E-05
78.2504	1.72E-05
78.5004	1.81E-05
78.7504	1.72E-05
79.0004	1.38E-05
79.2504	1.60E-05
79.5004	1.76E-05
79.7504	1.62E-05
80.0004	1.76E-05
80.2504	1.34E-05
80.5004	1.38E-05
80.7504	1.38E-05
81.0004	1.43E-05
81.2504	1.65E-05
81.5004	1.34E-05
81.7504	1.22E-05
82.0004	1.41E-05
82.2504	1.48E-05
82.5004	1.45E-05
82.7504	1.31E-05
83.0004	1.60E-05
83.2504	1.34E-05
83.5004	1.26E-05
83.7504	1.76E-05
84.0004	1.65E-05
84.2504	1.48E-05
84.5004	1.69E-05
84.7504	1.41E-05
85.0004	1.86E-05
85.2504	1.93E-05
85.5004	1.69E-05
85.7504	1.69E-05
86.0004	1.60E-05
86.2504	2.10E-05
86.5004	1.60E-05
86.7504	1.69E-05
87.0004	1.96E-05
87.2504	1.65E-05
87.5004	1.69E-05
87.7504	1.36E-05
88.0004	1.14E-05
88.2504	1.43E-05
88.5004	1.62E-05
88.7504	1.60E-05
89.0004	1.45E-05
89.2504	1.10E-05
89.5004	1.53E-05
89.7504	1.38E-05
90.0004	1.38E-05
90.2503	1.43E-05
90.5003	1.05E-05
90.7503	1.12E-05
91.0003	1.38E-05
91.2503	1.22E-05
91.5003	1.12E-05
91.7503	1.38E-05
92.0003	1.14E-05
92.2503	1.26E-05
92.5003	9.78E-06
92.7503	1.26E-05
93.0003	1.22E-05
93.2503	1.26E-05
93.5003	9.54E-06
93.7503	9.06E-06
94.0003	1.03E-05
94.2503	9.30E-06
94.5003	8.34E-06
94.7503	8.34E-06
95.0003	7.63E-06
95.2503	9.78E-06
95.499	1.22E-05
95.7488	6.91E-06
95.9982	8.82E-06
96.2481	9.78E-06
96.5003	8.11E-06
96.7503	8.82E-06
97.0003	5.96E-06
97.2503	6.68E-06
97.5003	7.63E-06
97.7503	9.30E-06
98.0003	1.12E-05
98.2503	4.77E-06
98.5003	5.96E-06
98.7503	6.44E-06
98.9999	6.44E-06
99.2495	4.53E-06
99.4991	5.48E-06
99.7491	8.11E-06
100	7.39E-06
100.25	4.77E-06
100.5	8.11E-06
100.75	7.15E-06
101	7.39E-06
101.25	9.30E-06
101.5	5.96E-06
101.75	1.00E-05
102	7.39E-06
102.25	9.06E-06
102.5	7.63E-06
102.75	7.15E-06
103	5.96E-06
103.25	1.03E-05
103.5	5.96E-06
103.75	6.44E-06
104	5.72E-06
104.25	8.58E-06
104.5	5.72E-06
104.75	7.15E-06
105	7.63E-06
105.25	8.58E-06
105.499	6.91E-06
105.75	9.30E-06
105.998	8.34E-06
106.25	7.63E-06
106.5	3.34E-06
106.75	7.15E-06
107	7.87E-06
107.25	5.48E-06
107.5	6.68E-06
107.75	6.20E-06
108	6.44E-06
108.25	6.68E-06
108.5	5.01E-06
108.75	9.30E-06
109	8.11E-06
109.25	7.63E-06
109.5	9.54E-06
109.75	9.78E-06
110	1.07E-05
110.25	7.63E-06
110.5	7.63E-06
110.749	8.11E-06
110.999	9.54E-06
111.25	7.15E-06
111.5	1.10E-05
111.75	9.06E-06
112	9.78E-06
112.25	9.78E-06
112.5	6.44E-06
112.75	9.06E-06
113	9.78E-06
113.25	1.10E-05
113.5	7.87E-06
113.75	8.11E-06
114	1.26E-05
114.25	8.34E-06
114.5	8.82E-06
114.75	1.12E-05
115	1.14E-05
115.25	1.26E-05
115.5	9.30E-06
115.75	6.68E-06
116	6.44E-06
116.25	8.82E-06
116.499	9.78E-06
116.75	1.10E-05
117	1.07E-05
117.25	1.14E-05
117.5	1.19E-05
117.75	1.10E-05
118	1.12E-05
118.25	1.05E-05
118.5	1.12E-05
118.75	1.12E-05
119	8.34E-06
119.25	8.34E-06
119.5	1.26E-05
119.75	8.58E-06
120	8.34E-06
120.25	9.30E-06
120.5	1.12E-05
120.75	9.78E-06
121	1.14E-05
121.25	1.07E-05
121.5	9.54E-06
121.75	1.05E-05
122	1.00E-05
122.25	1.07E-05
122.5	1.60E-05
122.75	1.14E-05
123	1.98E-05
123.25	3.41E-05
123.5	4.17E-05
123.75	5.77E-05
124	4.53E-05
124.25	2.50E-05
124.5	1.22E-05
124.75	1.34E-05
125	1.26E-05
125.25	1.67E-05
125.5	1.57E-05
125.75	1.50E-05
126	1.45E-05
126.25	1.22E-05
126.5	1.69E-05
126.75	1.57E-05
127	1.67E-05
127.25	1.29E-05
127.5	1.50E-05
127.75	1.50E-05
128	1.48E-05
128.25	1.60E-05
128.5	1.76E-05
128.75	1.91E-05
129	1.72E-05
129.25	1.60E-05
129.5	1.53E-05
129.75	1.65E-05
130	1.76E-05
130.25	1.34E-05
130.5	1.41E-05
130.75	1.84E-05
131	1.69E-05
131.25	1.60E-05
131.5	1.65E-05
131.75	1.60E-05
132	1.86E-05
132.25	1.76E-05
132.5	1.67E-05
132.75	1.93E-05
132.999	2.03E-05
133.25	1.76E-05
133.499	1.60E-05
133.75	1.91E-05
134	1.76E-05
134.25	1.81E-05
134.5	2.03E-05
134.75	1.76E-05
135	1.50E-05
135	1.72E-05
-48.9987	8.27E-05
-48.7501	8.08E-05
-48.4987	8.25E-05
-48.2487	7.77E-05
-47.9987	7.68E-05
-47.7487	7.53E-05
-47.4987	7.51E-05
-47.2487	7.77E-05
-46.9987	7.75E-05
-46.7487	7.46E-05
-46.4987	7.27E-05
-46.2487	7.10E-05
-45.9987	7.30E-05
-45.7487	7.41E-05
-45.4987	7.32E-05
-45.2487	7.53E-05
-44.9987	7.18E-05
-44.7487	6.96E-05
-44.4987	7.25E-05
-44.2487	7.01E-05
-43.9987	7.03E-05
-43.7487	7.15E-05
-43.4987	6.94E-05
-43.2487	7.06E-05
-42.9987	6.68E-05
-42.7488	7.03E-05
-42.4987	6.99E-05
-42.2487	6.96E-05
-41.9987	6.68E-05
-41.7487	7.10E-05
-41.4987	6.60E-05
-41.2487	6.87E-05
-40.9987	6.27E-05
-40.7487	6.77E-05
-40.4987	6.91E-05
-40.2487	6.70E-05
-39.9988	6.84E-05
-39.7487	6.77E-05
-39.4988	6.70E-05
-39.2488	6.72E-05
-38.9988	6.44E-05
-38.7488	6.13E-05
-38.4988	6.29E-05
-38.2488	6.53E-05
-37.9988	6.41E-05
-37.7488	6.63E-05
-37.4988	6.82E-05
-37.2488	6.70E-05
-36.9988	6.58E-05
-36.7488	6.75E-05
-36.4988	6.79E-05
-36.2488	6.58E-05
-35.9988	6.60E-05
-35.7488	6.53E-05
-35.4988	6.63E-05
-35.2488	6.75E-05
-34.9988	6.51E-05
-34.7488	6.75E-05
-34.4988	6.46E-05
-34.2488	6.46E-05
-33.9988	6.84E-05
-33.7488	6.58E-05
-33.4988	6.75E-05
-33.2488	6.63E-05
-32.9988	6.75E-05
-32.7488	6.56E-05
-32.4988	6.84E-05
-32.2488	6.51E-05
-31.9988	6.87E-05
-31.7488	6.46E-05
-31.4988	6.70E-05
-31.2488	6.51E-05
-30.9988	7.15E-05
-30.7488	6.89E-05
-30.4988	6.82E-05
-30.2488	6.41E-05
-29.9988	6.77E-05
-29.7488	6.46E-05
-29.4988	6.60E-05
-29.2488	6.79E-05
-28.9988	6.94E-05
-28.7488	6.53E-05
-28.4988	6.72E-05
-28.2488	6.96E-05
-27.9988	7.01E-05
-27.7489	7.18E-05
-27.4989	6.96E-05
-27.2489	7.08E-05
-26.9998	7.03E-05
-26.7489	6.99E-05
-26.4989	6.87E-05
-26.2489	7.32E-05
-25.9989	6.87E-05
-25.7489	7.01E-05
-25.4989	6.77E-05
-25.2489	6.91E-05
-24.9989	7.06E-05
-24.7489	6.94E-05
-24.4989	7.06E-05
-24.2489	7.25E-05
-23.9989	6.99E-05
-23.7489	6.91E-05
-23.4989	6.96E-05
-23.2489	6.89E-05
-22.9989	7.30E-05
-22.7489	7.46E-05
-22.4989	7.30E-05
-22.2489	7.13E-05
-21.9989	7.08E-05
-21.7489	7.03E-05
-21.4989	7.25E-05
-21.2489	7.37E-05
-20.9989	7.44E-05
-20.7489	7.37E-05
-20.4989	7.53E-05
-20.2489	7.65E-05
-19.9989	7.30E-05
-19.7489	7.39E-05
-19.4989	7.34E-05
-19.2489	7.68E-05
-18.9989	7.68E-05
-18.7489	7.58E-05
-18.4989	7.46E-05
-18.2489	7.41E-05
-17.9989	7.65E-05
-17.7489	7.41E-05
-17.4989	7.58E-05
-17.2489	7.65E-05
-16.9989	7.77E-05
-16.7489	7.63E-05
-16.4989	7.58E-05
-16.2489	7.53E-05
-15.9989	7.46E-05
-15.7489	7.65E-05
-15.4989	7.72E-05
-15.2489	7.46E-05
-14.9989	7.96E-05
-14.7489	7.58E-05
-14.499	7.70E-05
-14.2489	7.49E-05
-13.999	7.22E-05
-13.749	7.61E-05
-13.499	7.68E-05
-13.249	7.39E-05
-12.999	7.63E-05
-12.749	7.32E-05
-12.499	7.37E-05
-12.249	7.41E-05
-11.999	7.80E-05
-11.749	7.34E-05
-11.499	7.41E-05
-11.249	7.58E-05
-10.999	7.61E-05
-10.749	7.68E-05
-10.499	7.41E-05
-10.249	7.70E-05
-9.99899	7.61E-05
-9.74899	7.65E-05
-9.49899	7.32E-05
-9.24899	7.53E-05
-8.99899	7.44E-05
-8.74901	7.46E-05
-8.49899	7.46E-05
-8.24901	7.18E-05
-7.999	7.49E-05
-7.74901	7.18E-05
-7.499	7.18E-05
-7.24901	7.30E-05
-6.99902	7.37E-05
-6.74902	7.39E-05
-6.49902	7.30E-05
-6.24902	7.32E-05
-5.99902	7.25E-05
-5.74902	7.46E-05
-5.49902	7.46E-05
-5.24902	7.75E-05
-4.99902	7.53E-05
-4.74903	7.41E-05
-4.49903	7.30E-05
-4.24904	7.46E-05
-3.99903	7.49E-05
-3.74904	7.63E-05
-3.49904	7.92E-05
-3.24904	7.58E-05
-2.99904	7.22E-05
-2.74905	7.41E-05
-2.49905	7.51E-05
-2.24924	7.68E-05
-1.99905	7.20E-05
-1.74905	7.37E-05
-1.49905	7.58E-05
-1.24905	7.34E-05
-0.999062	7.37E-05
-0.749062	7.65E-05
-0.499062	7.53E-05
-0.249069	7.44E-05
0.000938416	7.72E-05
0.250931	7.34E-05
0.500931	7.41E-05
0.750923	7.49E-05
1.00093	7.13E-05
1.25092	7.27E-05
1.50092	7.41E-05
1.75092	7.34E-05
2.00092	7.34E-05
2.25092	7.51E-05
2.50092	7.30E-05
2.75092	7.44E-05
3.00091	7.27E-05
3.25092	7.13E-05
3.50091	7.25E-05
3.7509	7.51E-05
4.00091	7.49E-05
4.2509	7.44E-05
4.5009	7.32E-05
4.75089	7.51E-05
5.0009	7.34E-05
5.25089	7.51E-05
5.50089	7.58E-05
5.75089	7.56E-05
6.00089	7.20E-05
6.25089	7.25E-05
6.50088	7.75E-05
6.75089	7.37E-05
7.00088	7.34E-05
7.25089	7.32E-05
7.50088	7.10E-05
7.75087	7.34E-05
8.00087	7.49E-05
8.25087	7.41E-05
8.50087	7.65E-05
8.75086	7.30E-05
9.00087	7.46E-05
9.25086	7.39E-05
9.50086	7.58E-05
9.75086	7.39E-05
10.0009	7.46E-05
10.2509	7.10E-05
10.5008	7.46E-05
10.7509	7.41E-05
11.0008	7.18E-05
11.2508	7.53E-05
11.5008	7.56E-05
11.7508	7.53E-05
12.0008	7.30E-05
12.2508	7.44E-05
12.5008	7.70E-05
12.7508	7.51E-05
13.0008	7.08E-05
13.2508	7.63E-05
13.5008	7.18E-05
13.7508	7.56E-05
14.0008	7.08E-05
14.2508	7.41E-05
14.5008	7.46E-05
14.7508	7.58E-05
15.0008	7.46E-05
15.2508	7.51E-05
15.5008	7.58E-05
15.7508	7.51E-05
16.0008	7.08E-05
16.2508	7.34E-05
16.5008	7.18E-05
16.7508	7.53E-05
17.0008	7.30E-05
17.2508	7.56E-05
17.5008	7.27E-05
17.7507	7.44E-05
18.0008	7.51E-05
18.2508	7.46E-05
18.5008	7.30E-05
18.7508	7.30E-05
19.0008	7.22E-05
19.2508	7.08E-05
19.4992	7.44E-05
19.7508	7.18E-05
20.0008	7.32E-05
20.2508	7.13E-05
20.5008	7.08E-05
20.7508	7.18E-05
21.0008	7.25E-05
21.2508	7.13E-05
21.5008	7.10E-05
21.7508	7.25E-05
22.0008	7.39E-05
22.2508	6.96E-05
22.5008	7.32E-05
22.7508	7.15E-05
23.0008	7.18E-05
23.2508	6.84E-05
23.5007	6.89E-05
23.7508	7.03E-05
24.0007	7.20E-05
24.2507	7.01E-05
24.5007	6.75E-05
24.7507	6.79E-05
25.0007	6.91E-05
25.2507	6.87E-05
25.5007	6.82E-05
25.7507	7.30E-05
26.0007	7.15E-05
26.2507	6.84E-05
26.5007	7.13E-05
26.7507	6.87E-05
27.0007	7.20E-05
27.2507	6.96E-05
27.5007	7.22E-05
27.7507	6.99E-05
28.0007	7.13E-05
28.2507	7.18E-05
28.5007	7.46E-05
28.7507	7.08E-05
29.0007	6.91E-05
29.2507	7.18E-05
29.5007	7.10E-05
29.7507	7.10E-05
30.0007	7.41E-05
30.2507	7.63E-05
30.5007	7.08E-05
30.7507	7.22E-05
31.0007	7.13E-05
31.2507	7.01E-05
31.5007	7.13E-05
31.7507	7.18E-05
32.0007	7.32E-05
32.2507	7.41E-05
32.5007	7.13E-05
32.7507	7.13E-05
33.0007	7.06E-05
33.2507	7.39E-05
33.5007	7.30E-05
33.7507	7.20E-05
34.0007	7.13E-05
34.2507	7.18E-05
34.5007	7.08E-05
34.7507	7.41E-05
35.0007	7.34E-05
35.2507	7.51E-05
35.5007	7.80E-05
35.7507	7.58E-05
36.0006	7.70E-05
36.2506	7.68E-05
36.5006	7.72E-05
36.7506	7.44E-05
37.0006	7.32E-05
37.2506	7.53E-05
37.5006	7.27E-05
37.7506	7.51E-05
38.0006	7.65E-05
38.2506	7.80E-05
38.4993	7.92E-05
38.7506	8.01E-05
39.0006	8.23E-05
39.2506	8.30E-05
39.5006	8.06E-05
39.7506	8.08E-05
40.0006	8.49E-05
40.2506	8.42E-05
40.5006	8.70E-05
40.7506	8.77E-05
41.0006	8.99E-05
41.2506	9.16E-05
41.5006	9.01E-05
41.7506	9.35E-05
42.0006	9.61E-05
42.2506	9.80E-05
42.5006	9.94E-05
42.7506	9.97E-05
43.0006	9.97E-05
43.2506	0.000101567
43.5006	0.000105143
43.7506	0.000103951
44.0006	0.000106097
44.2488	0.000105143
44.5006	0.000111342
44.7506	0.000113488
45.0006	0.000119448
45.2506	0.000118971
45.5006	0.000120402
45.7506	0.000123025
46.0006	0.000125409
46.2506	0.000128985
46.5006	0.000133277
46.7506	0.000132323
47.0006	0.000136615
47.2506	0.000137807
47.5006	0.000140191
47.7506	0.000143529
48.0006	0.000148059
48.2506	0.000154019
48.5006	0.000154258
48.7506	0.000154973
49.0005	0.000161649
49.2505	0.000164987
49.5005	0.000174762
49.7505	0.000179769
50.0005	0.000182391
50.2505	0.000183822
50.5005	0.000183106
50.7505	0.000191928
51.0005	0.00019455
51.2505	0.000199796
51.5005	0.000200511
51.7497	0.000205756
51.9989	0.000210763
52.2488	0.000216008
52.5	0.00023389
52.7486	0.000244142
52.999	0.000237943
53.2505	0.000234843
53.5005	0.000237704
53.7505	0.000242473
54.0005	0.00025511
54.2505	0.000262024
54.5005	0.000264885
54.7505	0.000258924
55.0005	0.000258686
55.2505	0.000266792
55.5005	0.000272276
55.7505	0.00027776
56.0005	0.000283958
56.2505	0.000291826
56.5005	0.000295402
56.7505	0.000296595
57.0005	0.000302793
57.2505	0.000309469
57.5005	0.000310423
57.7505	0.000304701
58.0005	0.000309469
58.2505	0.000319483
58.5005	0.000324251
58.7505	0.000332596
59.0005	0.000334742
59.2505	0.000342609
59.5005	0.000335934
59.7505	0.00033641
60.0005	0.000332596
60.2505	0.000332119
60.5005	0.000333549
60.7505	0.000339987
61.0005	0.000333311
61.2505	0.000324966
61.5005	0.000331881
61.7505	0.000333311
62.0005	0.00032592
62.2505	0.000309708
62.5005	0.000313522
62.7504	0.000324013
63.0004	0.00033498
63.2504	0.000331404
63.5004	0.000319244
63.7504	0.000312807
64.0004	0.000316383
64.2504	0.000319244
64.5004	0.000319244
64.7504	0.000318768
65.0004	0.000323297
65.2504	0.00031233
65.5004	0.000297787
65.7504	0.000279667
66.0004	0.000273945
66.2504	0.000273706
66.4989	0.000280144
66.7491	0.000281336
67.0004	0.000278236
67.2504	0.000268461
67.5004	0.000268223
67.7504	0.000259401
68.0004	0.000251295
68.2504	0.000245335
68.5004	0.000241281
68.7504	0.000241757
69.0004	0.000236989
69.2504	0.000233413
69.5004	0.000232936
69.7504	0.00023842
70.0004	0.000234128
70.2504	0.000234605
70.5004	0.000224591
70.7504	0.000222445
71.0004	0.000208379
71.2504	0.000197412
71.5004	0.000192166
71.7504	0.000194074
72.0004	0.000189782
72.2504	0.00019455
72.5004	0.000192882
72.7504	0.00019908
73.0004	0.000189544
73.2504	0.000183345
73.5004	0.0001781
73.7504	0.000172616
74.0004	0.000171424
74.2504	0.000168801
74.5004	0.000163794
74.7504	0.000153304
75.0004	0.000149489
75.2503	0.000151397
75.5003	0.000151397
75.7499	0.000148297
76.0003	0.000143767
76.2503	0.000137568
76.5003	0.0001328
76.7503	0.00013137
77.0003	0.000129701
77.2503	0.000127555
77.5003	0.000123025
77.7503	0.000123979
78.0003	0.000124694
78.2503	0.000121117
78.5003	0.00011611
78.7503	0.000104666
79.0003	0.000102282
79.2503	9.75E-05
79.4994	9.85E-05
79.7491	0.000100136
79.9992	0.000104428
80.2503	0.000103713
80.5003	9.89E-05
80.7503	8.89E-05
81.0003	8.54E-05
81.2503	8.13E-05
81.5003	7.96E-05
81.7503	7.96E-05
82.0003	8.32E-05
82.2503	7.70E-05
82.5003	7.77E-05
82.7503	7.41E-05
83.0003	7.75E-05
83.2503	7.13E-05
83.5003	7.01E-05
83.7503	6.53E-05
84.0003	6.25E-05
84.2503	5.72E-05
84.5003	5.53E-05
84.7503	5.17E-05
85.0003	4.36E-05
85.2503	3.46E-05
85.5003	1.72E-05
85.7503	7.87E-06
86.0003	6.68E-06
86.2503	8.11E-06
86.5003	7.63E-06
86.7503	7.63E-06
87.0003	9.30E-06
87.2503	9.30E-06
87.5003	9.30E-06
87.7503	5.48E-06
88.0002	7.15E-06
88.2502	7.63E-06
88.5002	5.96E-06
88.7502	8.11E-06
89.0002	1.00E-05
89.2502	5.96E-06
89.5002	8.34E-06
89.7502	4.77E-06
90.0002	1.03E-05
90.2502	5.96E-06
90.5002	1.05E-05
90.7502	9.30E-06
91.0002	9.54E-06
91.2502	1.05E-05
91.5002	6.91E-06
91.7496	8.82E-06
92.0002	8.82E-06
92.2502	7.15E-06
92.5002	9.30E-06
92.7502	1.07E-05
93.0002	1.14E-05
93.2502	8.82E-06
93.5002	9.30E-06
93.7502	9.78E-06
94.0002	6.44E-06
94.2501	8.82E-06
94.5002	1.00E-05
94.7501	1.00E-05
95.0001	9.78E-06
95.25	1.14E-05
95.5002	1.05E-05
95.7502	1.19E-05
96.0002	1.07E-05
96.2502	1.12E-05
96.5002	1.03E-05
96.7502	1.31E-05
97.0002	1.26E-05
97.2502	1.14E-05
97.5002	1.22E-05
97.7502	1.48E-05
98.0002	1.55E-05
98.2502	1.31E-05
98.5002	1.31E-05
98.7502	1.45E-05
99.0002	1.76E-05
99.2502	1.14E-05
99.5002	1.65E-05
99.7502	1.55E-05
100	1.96E-05
100.25	1.43E-05
100.5	1.55E-05
100.75	1.76E-05
101	1.62E-05
101.25	1.65E-05
101.499	1.81E-05
101.749	1.76E-05
102	1.72E-05
102.25	1.48E-05
102.5	1.76E-05
102.75	2.17E-05
103	1.96E-05
103.25	1.96E-05
103.5	1.60E-05
103.75	1.43E-05
104	1.62E-05
104.25	1.24E-05
104.5	1.19E-05
104.75	1.69E-05
105	1.19E-05
105.25	1.12E-05
105.5	1.31E-05
105.75	1.45E-05
106	1.48E-05
106.25	1.26E-05
106.5	1.36E-05
106.75	1.19E-05
107	1.31E-05
107.25	1.29E-05
107.5	1.31E-05
107.75	1.26E-05
108	1.74E-05
108.25	3.12E-05
108.5	4.46E-05
108.75	5.75E-05
109	5.60E-05
109.25	5.96E-05
109.5	5.32E-05
109.75	5.29E-05
110	4.10E-05
110.25	4.53E-05
110.5	4.24E-05
110.75	3.24E-05
111	2.65E-05
111.25	1.86E-05
111.499	1.84E-05
111.749	1.93E-05
112	1.81E-05
112.25	1.38E-05
112.5	1.26E-05
112.75	1.43E-05
113	1.55E-05
113.25	1.84E-05
113.5	1.93E-05
113.75	1.88E-05
114	1.91E-05
114.25	1.93E-05
114.5	2.00E-05
114.75	1.96E-05
115	1.86E-05
115.25	2.03E-05
115.5	1.88E-05
115.75	1.96E-05
116	1.86E-05
116.25	2.10E-05
116.5	1.86E-05
116.75	2.05E-05
117	1.98E-05
117.25	1.81E-05
117.5	1.88E-05
117.75	1.60E-05
118	2.03E-05
118.25	1.76E-05
118.5	1.88E-05
118.75	2.26E-05
119	2.03E-05
119.25	1.98E-05
119.5	2.31E-05
119.75	1.81E-05
120	2.15E-05
120	1.88E-05
-63.9987	6.46E-05
-63.7487	6.32E-05
-63.4987	6.39E-05
-63.2487	6.06E-05
-62.9987	5.89E-05
-62.7487	5.70E-05
-62.4997	5.75E-05
-62.2498	5.77E-05
-61.9999	5.75E-05
-61.7487	5.44E-05
-61.4987	5.32E-05
-61.2492	5.13E-05
-60.9987	5.29E-05
-60.7487	5.29E-05
-60.4987	5.27E-05
-60.2487	5.51E-05
-59.9987	5.29E-05
-59.7487	5.20E-05
-59.4987	5.32E-05
-59.2487	5.29E-05
-58.9987	5.25E-05
-58.7487	5.22E-05
-58.4987	5.08E-05
-58.2487	4.96E-05
-57.9987	4.58E-05
-57.7487	4.94E-05
-57.4987	4.79E-05
-57.2487	4.48E-05
-56.9987	4.53E-05
-56.7487	4.70E-05
-56.4987	4.67E-05
-56.2487	4.51E-05
-55.9987	4.43E-05
-55.7488	4.34E-05
-55.4987	4.65E-05
-55.2487	4.48E-05
-54.9988	4.53E-05
-54.7487	4.46E-05
-54.4988	4.39E-05
-54.2488	4.65E-05
-53.9988	4.22E-05
-53.7503	4.24E-05
-53.4988	4.41E-05
-53.2488	4.36E-05
-52.9988	4.24E-05
-52.7488	4.22E-05
-52.4988	4.48E-05
-52.2488	4.65E-05
-51.9988	4.36E-05
-51.7488	4.46E-05
-51.4988	4.24E-05
-51.2488	4.24E-05
-50.9988	4.48E-05
-50.7488	4.22E-05
-50.4988	4.41E-05
-50.2488	4.41E-05
-49.9988	4.12E-05
-49.7488	4.41E-05
-49.4988	4.32E-05
-49.2488	4.17E-05
-48.9988	4.39E-05
-48.7488	4.36E-05
-48.4988	4.36E-05
-48.2488	4.58E-05
-47.9988	4.36E-05
-47.7488	4.32E-05
-47.4988	4.03E-05
-47.2488	4.48E-05
-46.9988	4.36E-05
-46.7488	4.55E-05
-46.4988	4.53E-05
-46.2488	4.39E-05
-45.9988	4.46E-05
-45.7488	4.67E-05
-45.4988	4.27E-05
-45.2488	4.39E-05
-44.9988	4.22E-05
-44.7488	4.65E-05
-44.4988	4.53E-05
-44.2488	4.53E-05
-43.9988	4.41E-05
-43.7488	4.05E-05
-43.4988	4.58E-05
-43.2488	4.65E-05
-42.9988	4.53E-05
-42.7489	4.48E-05
-42.4989	4.46E-05
-42.2489	4.67E-05
-41.9989	4.94E-05
-41.7489	4.79E-05
-41.4989	4.91E-05
-41.2497	4.74E-05
-40.9999	4.65E-05
-40.7489	5.13E-05
-40.4989	4.72E-05
-40.2489	4.74E-05
-39.9989	4.65E-05
-39.7489	5.10E-05
-39.4989	5.10E-05
-39.2489	5.08E-05
-38.9989	4.96E-05
-38.7489	4.77E-05
-38.4989	5.10E-05
-38.2489	4.74E-05
-37.9989	4.96E-05
-37.7489	4.91E-05
-37.4989	4.98E-05
-37.2489	5.13E-05
-36.9989	5.36E-05
-36.7489	5.01E-05
-36.4989	5.25E-05
-36.2489	5.20E-05
-35.9989	5.36E-05
-35.7489	5.05E-05
-35.4989	5.36E-05
-35.2489	5.39E-05
-34.9989	5.36E-05
-34.7489	5.27E-05
-34.4989	5.58E-05
-34.2489	5.63E-05
-33.9989	5.34E-05
-33.7489	5.29E-05
-33.4989	5.46E-05
-33.2489	5.22E-05
-32.9989	5.51E-05
-32.7489	5.67E-05
-32.4989	5.36E-05
-32.2489	5.58E-05
-31.9989	5.53E-05
-31.7489	5.46E-05
-31.4989	5.36E-05
-31.2489	5.67E-05
-30.9989	5.60E-05
-30.7489	5.53E-05
-30.4989	5.41E-05
-30.2489	5.41E-05
-29.9989	5.41E-05
-29.7489	5.46E-05
-29.499	5.63E-05
-29.2489	5.44E-05
-28.999	5.67E-05
-28.749	5.65E-05
-28.499	5.32E-05
-28.249	5.53E-05
-27.999	5.77E-05
-27.749	5.46E-05
-27.499	5.56E-05
-27.249	5.53E-05
-26.999	5.79E-05
-26.749	5.51E-05
-26.499	5.58E-05
-26.249	5.75E-05
-25.999	5.65E-05
-25.749	5.51E-05
-25.499	5.58E-05
-25.249	5.67E-05
-24.999	5.51E-05
-24.749	5.48E-05
-24.499	5.48E-05
-24.249	5.46E-05
-23.999	5.53E-05
-23.749	5.41E-05
-23.499	5.53E-05
-23.249	5.36E-05
-22.999	5.77E-05
-22.749	5.13E-05
-22.499	5.56E-05
-22.249	5.39E-05
-21.999	5.46E-05
-21.749	5.53E-05
-21.499	5.63E-05
-21.249	5.63E-05
-20.999	5.70E-05
-20.749	5.29E-05
-20.499	5.58E-05
-20.249	5.65E-05
-19.999	5.41E-05
-19.749	5.13E-05
-19.499	5.53E-05
-19.249	5.53E-05
-18.999	5.51E-05
-18.749	5.46E-05
-18.499	5.63E-05
-18.249	5.29E-05
-17.999	5.82E-05
-17.7494	5.44E-05
-17.4995	5.70E-05
-17.249	5.36E-05
-16.9991	5.34E-05
-16.749	5.25E-05
-16.4991	5.77E-05
-16.2491	5.44E-05
-15.9991	5.46E-05
-15.7491	5.65E-05
-15.4991	5.51E-05
-15.2491	5.60E-05
-14.9991	5.79E-05
-14.7491	5.70E-05
-14.4991	5.75E-05
-14.2491	5.84E-05
-13.9991	5.65E-05
-13.7491	5.44E-05
-13.5006	5.77E-05
-13.2491	5.63E-05
-12.9991	5.84E-05
-12.7491	5.70E-05
-12.4991	5.67E-05
-12.2491	5.77E-05
-11.9991	5.65E-05
-11.7491	5.77E-05
-11.4991	5.58E-05
-11.2491	5.65E-05
-10.9991	5.58E-05
-10.7491	5.77E-05
-10.4991	5.63E-05
-10.2491	5.46E-05
-9.9991	5.77E-05
-9.74911	5.84E-05
-9.49918	5.77E-05
-9.24911	6.01E-05
-8.99932	5.82E-05
-8.74918	5.67E-05
-8.49912	5.51E-05
-8.24911	5.41E-05
-7.99912	5.29E-05
-7.74911	5.51E-05
-7.49912	5.75E-05
-7.24913	5.46E-05
-6.99913	5.36E-05
-6.74913	5.29E-05
-6.49913	5.77E-05
-6.24914	5.72E-05
-5.99913	5.63E-05
-5.74914	5.77E-05
-5.49914	5.72E-05
-5.24914	5.41E-05
-4.99915	5.29E-05
-4.74915	5.51E-05
-4.49931	5.48E-05
-4.24934	5.98E-05
-3.99915	5.65E-05
-3.74915	5.75E-05
-3.49915	5.98E-05
-3.24916	5.82E-05
-2.99916	5.89E-05
-2.74917	5.67E-05
-2.49916	5.87E-05
-2.24917	5.79E-05
-1.99916	5.82E-05
-1.74917	5.94E-05
-1.49917	5.96E-05
-1.24918	5.63E-05
-0.999176	6.34E-05
-0.749176	5.79E-05
-0.499184	5.77E-05
-0.249176	6.08E-05
0.000816345	5.96E-05
0.250816	5.63E-05
0.500809	5.91E-05
0.750816	5.75E-05
1.00081	6.06E-05
1.2508	5.94E-05
1.50081	5.94E-05
1.7508	6.08E-05
2.0008	5.91E-05
2.2508	6.20E-05
2.5008	6.08E-05
2.75079	5.84E-05
3.00079	6.22E-05
3.25079	6.03E-05
3.50079	5.84E-05
3.75079	5.89E-05
4.00079	5.79E-05
4.25079	5.79E-05
4.50078	6.01E-05
4.75079	5.98E-05
5.00078	5.96E-05
5.25077	5.63E-05
5.50078	5.79E-05
5.75077	5.65E-05
6.00077	5.87E-05
6.25076	5.89E-05
6.50077	5.63E-05
6.75076	5.91E-05
7.00077	5.87E-05
7.25076	5.98E-05
7.50076	6.08E-05
7.75076	5.67E-05
8.00076	5.63E-05
8.25076	5.56E-05
8.50075	5.63E-05
8.75076	5.84E-05
9.00075	5.91E-05
9.25074	5.72E-05
9.50075	5.63E-05
9.75074	5.91E-05
10.0007	5.58E-05
10.2507	5.67E-05
10.4999	5.58E-05
10.7507	5.48E-05
11.0007	5.77E-05
11.2507	5.58E-05
11.5007	5.89E-05
11.7507	5.67E-05
12.0007	5.48E-05
12.2507	5.70E-05
12.5007	5.79E-05
12.7507	5.91E-05
13.0007	5.60E-05
13.2507	5.79E-05
13.5007	5.89E-05
13.7507	5.65E-05
14.0007	5.60E-05
14.2507	5.72E-05
14.5	5.46E-05
14.7499	5.46E-05
14.9999	5.72E-05
15.2507	5.36E-05
15.5007	5.60E-05
15.7507	5.70E-05
16.0007	5.51E-05
16.2507	5.48E-05
16.5007	5.51E-05
16.7507	5.48E-05
17.0007	5.70E-05
17.2507	5.91E-05
17.5007	5.53E-05
17.7507	5.79E-05
18.0007	5.51E-05
18.2507	5.39E-05
18.5007	5.46E-05
18.7507	5.41E-05
19.0007	5.41E-05
19.2507	5.41E-05
19.5007	5.48E-05
19.7507	5.41E-05
20.0007	5.25E-05
20.2507	5.48E-05
20.5007	5.27E-05
20.7507	5.39E-05
21.0006	4.89E-05
21.2506	4.98E-05
21.5006	5.25E-05
21.7506	5.01E-05
22.0006	5.41E-05
22.2506	5.25E-05
22.5006	5.32E-05
22.7506	5.20E-05
23.0006	5.32E-05
23.2506	5.20E-05
23.5006	5.03E-05
23.7506	5.03E-05
24.0006	5.13E-05
24.2506	5.03E-05
24.5006	5.22E-05
24.7506	5.32E-05
25.0006	5.03E-05
25.2506	5.17E-05
25.5006	5.13E-05
25.7506	5.15E-05
26.0006	5.29E-05
26.2506	5.13E-05
26.5006	5.08E-05
26.7506	5.34E-05
27.0006	5.20E-05
27.2506	5.03E-05
27.5006	5.32E-05
27.7506	5.25E-05
28.0006	5.13E-05
28.2506	5.29E-05
28.5006	5.03E-05
28.7506	4.89E-05
29.0006	5.08E-05
29.2488	5.25E-05
29.5006	5.08E-05
29.7506	5.25E-05
30.0006	5.36E-05
30.2506	5.46E-05
30.5006	5.15E-05
30.7506	5.29E-05
31.0006	5.34E-05
31.2506	5.25E-05
31.5006	4.98E-05
31.7506	5.25E-05
32.0001	5.20E-05
32.2499	5.34E-05
32.5006	5.29E-05
32.7506	5.39E-05
33.0006	5.22E-05
33.2506	5.15E-05
33.5006	5.32E-05
33.7506	5.36E-05
34.0005	5.03E-05
34.2505	5.13E-05
34.5005	5.58E-05
34.7505	5.41E-05
35.0005	5.58E-05
35.2505	5.75E-05
35.5005	5.63E-05
35.7505	5.41E-05
36.0005	5.25E-05
36.2505	5.22E-05
36.5005	5.84E-05
36.7505	5.63E-05
37.0005	5.63E-05
37.2505	5.63E-05
37.5005	5.96E-05
37.7484	5.96E-05
38.0005	6.34E-05
38.2505	5.63E-05
38.5005	5.70E-05
38.7505	6.25E-05
39.0005	6.37E-05
39.2505	5.98E-05
39.5005	5.91E-05
39.7505	6.32E-05
40.0005	6.25E-05
40.2505	6.34E-05
40.5005	6.51E-05
40.7505	6.60E-05
41.0005	6.46E-05
41.2505	6.51E-05
41.5005	6.46E-05
41.7505	6.75E-05
42.0005	6.53E-05
42.2505	6.75E-05
42.5005	6.53E-05
42.7505	6.96E-05
43.0005	6.77E-05
43.2505	7.08E-05
43.5005	7.20E-05
43.7505	7.34E-05
44.0005	7.41E-05
44.2505	7.46E-05
44.5005	7.80E-05
44.7505	7.77E-05
45.0005	7.75E-05
45.2505	7.96E-05
45.5005	7.80E-05
45.7505	7.84E-05
46.0005	8.27E-05
46.2505	8.61E-05
46.5005	8.32E-05
46.7505	8.92E-05
47.0005	9.01E-05
47.2505	8.85E-05
47.5005	9.18E-05
47.7504	9.23E-05
48.0004	9.61E-05
48.2504	9.73E-05
48.5004	0.000100613
48.7504	0.000104428
49.0004	0.00010252
49.2504	0.000104428
49.5003	0.000109435
49.75	0.000108719
50.0004	0.000112057
50.2504	0.000120402
50.5004	0.00012064
50.7504	0.000122548
51.0004	0.000126124
51.2504	0.000129462
51.5004	0.000130893
51.7504	0.000133992
52.0004	0.0001359
52.2504	0.000141622
52.5004	0.000150205
52.7504	0.000151158
53.0004	0.000159503
53.2504	0.000164987
53.5004	0.000167609
53.7504	0.000178576
54.0004	0.00018406
54.2504	0.000189782
54.5004	0.000202657
54.7504	0.000210525
55.0004	0.000217916
55.2504	0.000219584
55.5004	0.000218392
55.7504	0.000225306
56.0004	0.00023532
56.2504	0.000247242
56.5004	0.000258924
56.7504	0.000272753
57.0004	0.000281097
57.2504	0.000289204
57.5004	0.000298264
57.7504	0.000316145
58.0004	0.000335695
58.2504	0.000341179
58.5004	0.000347855
58.7504	0.000352623
59.0004	0.000370266
59.2504	0.000384333
59.5004	0.000399115
59.7499	0.000410797
59.9999	0.000421049
60.2497	0.000437262
60.5003	0.000452043
60.7503	0.000467064
61.0003	0.000487806
61.2503	0.00050116
61.5003	0.00052214
61.7503	0.000540737
62.0003	0.00055838
62.2503	0.000564817
62.5003	0.000578646
62.7503	0.000613932
63.0003	0.000633959
63.2503	0.000657562
63.5003	0.000677112
63.7503	0.000697616
64.0003	0.000714067
64.2503	0.000736479
64.5003	0.000755552
64.7503	0.000768904
65.0003	0.000797275
65.2503	0.000818733
65.5003	0.000833277
65.7503	0.000864748
66.0003	0.000870232
66.2503	0.00088096
66.5003	0.000895742
66.7503	0.000930551
67.0003	0.000957254
67.2503	0.000982054
67.5003	0.00100637
67.7503	0.00101972
68.0003	0.00103689
68.2503	0.00106884
68.5003	0.00108386
68.7503	0.00111175
69.0003	0.00113774
69.2503	0.0011592
69.5003	0.00117732
69.7503	0.00118733
70.0003	0.00121451
70.2503	0.00122929
70.5003	0.00123597
70.7503	0.00120998
71.0003	0.00121237
71.2503	0.00122309
71.5003	0.00127221
71.7503	0.00132204
72.0003	0.00131346
72.2503	0.00135065
72.5003	0.00136352
72.7503	0.00135899
73.0002	0.00133944
73.2502	0.00134517
73.5002	0.00135542
73.7502	0.00131822
74.0002	0.00126482
74.2502	0.00126816
74.5002	0.00127269
74.7502	0.00129915
75.0002	0.00128055
75.2502	0.00127841
75.5002	0.00127674
75.7502	0.001297
76.0002	0.00127674
76.2502	0.00124813
76.5002	0.00120545
76.7502	0.00119544
77.0002	0.00117088
77.2502	0.00116635
77.5002	0.00114704
77.7502	0.00113512
78.0002	0.00114179
78.2502	0.00117589
78.5002	0.00116778
78.7502	0.00111175
79.0002	0.00104571
79.2502	0.000995405
79.5002	0.000963215
79.7502	0.00095344
80.0002	0.000984438
80.2502	0.000951294
80.5002	0.000909571
80.7502	0.000858072
81.0002	0.000827555
81.2502	0.000809435
81.5002	0.000792507
81.7502	0.000772957
82.0002	0.000749592
82.2502	0.000750784
82.5002	0.000720743
82.7502	0.000652794
83.0002	0.000570063
83.2502	0.00054789
83.5002	0.000513796
83.7502	0.00040436
84.0002	0.000247957
84.2502	0.000125648
84.5002	6.10E-05
84.7502	3.22E-05
85.0002	2.41E-05
85.2502	2.19E-05
85.5002	1.98E-05
85.7502	2.10E-05
86.0001	1.69E-05
86.2501	2.15E-05
86.5001	1.88E-05
86.7501	2.31E-05
87.0001	2.43E-05
87.2501	1.96E-05
87.5001	1.60E-05
87.7501	1.36E-05
88.0001	1.69E-05
88.2501	1.76E-05
88.5001	1.96E-05
88.7496	2.17E-05
89.0001	1.91E-05
89.2501	1.81E-05
89.5001	2.10E-05
89.7501	2.50E-05
90.0001	2.81E-05
90.2501	2.62E-05
90.5001	2.67E-05
90.7501	2.98E-05
91.0001	3.24E-05
91.2501	3.22E-05
91.5001	3.19E-05
91.7501	3.65E-05
92.0001	3.65E-05
92.2501	3.79E-05
92.5001	4.10E-05
92.7501	4.70E-05
93.0001	5.13E-05
93.2501	6.84E-05
93.5001	7.94E-05
93.7501	9.80E-05
94.0001	9.92E-05
94.2501	0.000105858
94.5001	9.70E-05
94.7501	9.01E-05
95.0001	7.06E-05
95.2501	6.06E-05
95.5001	4.82E-05
95.7501	3.41E-05
96.0001	2.31E-05
96.2501	1.69E-05
96.5001	1.81E-05
96.7501	1.55E-05
97.0001	1.34E-05
97.2501	1.60E-05
97.5001	1.67E-05
97.7501	1.55E-05
98.0001	1.69E-05
98.2496	2.19E-05
98.5001	2.36E-05
98.75	2.86E-05
99	3.48E-05
99.25	4.03E-05
99.4995	5.13E-05
99.7494	7.18E-05
100	7.65E-05
100.25	5.15E-05
100.5	2.36E-05
100.75	1.41E-05
101	1.26E-05
101.25	1.98E-05
101.5	1.86E-05
101.75	1.88E-05
102	1.69E-05
102.25	1.81E-05
102.5	1.93E-05
102.75	1.96E-05
103	1.86E-05
103.25	1.74E-05
103.5	1.84E-05
103.75	1.86E-05
104	1.91E-05
104.25	2.00E-05
104.5	2.26E-05
104.75	2.03E-05
104.997	1.96E-05
105	2.10E-05
