Photodiode Viewing Angle (Degrees) - Plot 0	Lock-in Signal Amplitude (V) - Plot 0
-18.9987	0.000587467
-18.7487	0.000579838
-18.4987	0.000579838
-18.2487	0.000572208
-17.9987	0.000564579
-17.7487	0.000553135
-17.4987	0.000541691
-17.2487	0.000534061
-16.9987	0.000541691
-16.7487	0.000534061
-16.4987	0.000526432
-16.2487	0.000522617
-15.9987	0.000511173
-15.7487	0.000507358
-15.4987	0.000511173
-15.2487	0.000507358
-14.9987	0.000499729
-14.7491	0.000503544
-14.4987	0.000495914
-14.2487	0.000495914
-13.9987	0.000488285
-13.7487	0.0004921
-13.4987	0.000484468
-13.2487	0.000488285
-12.9987	0.000488285
-12.7487	0.000488285
-12.4987	0.000488285
-12.2487	0.000484468
-11.9987	0.000495914
-11.7487	0.000488285
-11.4987	0.000480654
-11.2487	0.000473024
-10.9987	0.000476839
-10.7488	0.000473024
-10.4987	0.000473024
-10.2487	0.000473024
-9.99876	0.000473024
-9.74875	0.000473024
-9.49876	0.000473024
-9.24876	0.000473024
-8.99876	0.00046921
-8.74876	0.000465395
-8.49876	0.00046158
-8.24878	0.000465395
-7.99876	0.000473024
-7.74878	0.000473024
-7.49878	0.00046921
-7.24878	0.00046158
-6.99878	0.000465395
-6.74878	0.00046158
-6.49878	0.000457766
-6.24878	0.00046158
-5.99879	0.000453951
-5.74878	0.000450136
-5.49879	0.000457766
-5.24879	0.000453951
-4.99879	0.000450136
-4.74879	0.000453951
-4.49879	0.000450136
-4.24879	0.000453951
-3.99879	0.000453951
-3.74881	0.000457766
-3.49881	0.000453951
-3.24881	0.000457766
-2.99881	0.00046158
-2.74881	0.000453951
-2.49881	0.000453951
-2.24881	0.000450136
-1.99883	0.000450136
-1.74883	0.000450136
-1.49883	0.000450136
-1.24883	0.000446321
-0.998825	0.000450136
-0.748825	0.000450136
-0.498825	0.000446321
-0.248825	0.000450136
0.00117493	0.000450136
0.25116	0.000450136
0.50116	0.000450136
0.75116	0.000450136
1.00116	0.000450136
1.25116	0.000453951
1.50116	0.000450136
1.75116	0.000450136
2.00116	0.000446321
2.25114	0.000446321
2.50114	0.000446321
2.75114	0.000446321
3.00114	0.000446321
3.25114	0.000442507
3.50114	0.000442507
3.75114	0.000438692
4.00113	0.000446321
4.25113	0.000446321
4.50113	0.000446321
4.75113	0.000446321
5.00113	0.000446321
5.25113	0.000442507
5.50113	0.000446321
5.75111	0.000446321
6.00113	0.000438692
6.25111	0.000442507
6.50111	0.000438692
6.75111	0.000442507
7.00111	0.000438692
7.25111	0.000442507
7.50111	0.000442507
7.75111	0.000442507
8.0011	0.000446321
8.25111	0.000442507
8.5011	0.000442507
8.7511	0.000446321
9.0011	0.000442507
9.2511	0.000434877
9.5011	0.000434877
9.75108	0.000431063
10.0011	0.000431063
10.2511	0.000434877
10.5011	0.000431063
10.7511	0.000434877
11.0011	0.000438692
11.2511	0.000438692
11.5011	0.000438692
11.7511	0.000434877
12.0011	0.000431063
12.2511	0.000434877
12.5011	0.000434877
12.7511	0.000427248
13.0011	0.000427248
13.2511	0.000423433
13.5011	0.000423433
13.7511	0.000423433
14.0011	0.000427248
14.2511	0.000423433
14.5011	0.000427248
14.7511	0.000423433
15.0011	0.000419619
15.2511	0.000423433
15.501	0.000419619
15.7511	0.000423433
16.001	0.000419619
16.251	0.000415804
16.501	0.000415804
16.751	0.000415804
17.001	0.000415804
17.251	0.000415804
17.501	0.000415804
17.751	0.000415804
18.001	0.000415804
18.251	0.000415804
18.501	0.000411989
18.751	0.000408174
19.001	0.000411989
19.251	0.000411989
19.501	0.000400545
19.751	0.00040436
20.001	0.000400545
20.251	0.000400545
20.501	0.000400545
20.751	0.00039673
21.001	0.00039673
21.251	0.000400545
21.501	0.000400545
21.751	0.00039673
22.001	0.00039673
22.251	0.00040436
22.501	0.000400545
22.7508	0.00040436
23.001	0.00040436
23.251	0.000400545
23.501	0.000400545
23.751	0.00039673
24.001	0.000392916
24.251	0.000392916
24.501	0.000389101
24.751	0.000389101
25.001	0.000389101
25.251	0.000385286
25.501	0.000381472
25.751	0.000381472
26.001	0.000377657
26.251	0.000385286
26.501	0.000381472
26.751	0.000381472
27.001	0.000377657
27.251	0.000377657
27.5009	0.000373842
27.751	0.000373842
28.0009	0.000373842
28.251	0.000377657
28.5009	0.000366213
28.7509	0.000370027
29.0009	0.000366213
29.2509	0.000366213
29.5009	0.000366213
29.7509	0.000366213
30.0009	0.000366213
30.2509	0.000362398
30.5009	0.000362398
30.7509	0.000358583
31.0009	0.000358583
31.2509	0.000358583
31.5009	0.000358583
31.7509	0.000358583
32.0009	0.000358583
32.2509	0.000362398
32.5009	0.000362398
32.7509	0.000358583
33.0009	0.000354769
33.2509	0.000350954
33.5009	0.000343325
33.7509	0.00033951
34.0009	0.00033951
34.2509	0.00033951
34.5009	0.00033951
34.7509	0.00033951
35.0009	0.000335695
35.2509	0.000335695
35.5009	0.000335695
35.7509	0.00033951
36.0009	0.000335695
36.2509	0.000335695
36.5009	0.000335695
36.7509	0.000335695
37.0009	0.000331881
37.2509	0.000328066
37.5009	0.000324251
37.7509	0.000316622
38.0009	0.000316622
38.2509	0.000316622
38.5009	0.000316622
38.7509	0.000324251
39.0009	0.000316622
39.2509	0.000316622
39.5009	0.000316622
39.7509	0.000316622
40.0009	0.000312807
40.2509	0.000308992
40.5008	0.000312807
40.7509	0.000308992
41.0008	0.000308992
41.2508	0.000305178
41.5008	0.000301363
41.7508	0.000301363
42.0008	0.000301363
42.2508	0.000305178
42.5008	0.000301363
42.7508	0.000301363
43.0008	0.000297548
43.2508	0.000297548
43.5008	0.000293734
43.7508	0.000293734
44.0008	0.000282289
44.2508	0.000278475
44.5008	0.000282289
44.7508	0.000282289
45.0008	0.000278475
45.2508	0.000278475
45.5008	0.000278475
45.7508	0.000282289
46.0008	0.00027466
46.2508	0.000270845
46.5008	0.000270845
46.7508	0.000270845
47.0008	0.000263216
47.2508	0.000263216
47.5008	0.000263216
47.7508	0.000263216
48.0008	0.000259401
48.2508	0.000255587
48.5008	0.000255587
48.7508	0.000251772
49.0008	0.000247957
49.2508	0.000251772
49.5008	0.000247957
49.7508	0.000251772
50.0008	0.000247957
50.2508	0.000244142
50.5008	0.000236512
50.7508	0.000236512
51.0008	0.000228883
51.2508	0.000232697
51.5008	0.000228883
51.7508	0.000228883
52.0008	0.000221253
52.2508	0.000221253
52.5003	0.000217439
52.7508	0.000221253
53.0008	0.000213624
53.2508	0.000209809
53.5007	0.000209809
53.7508	0.000209809
54.0007	0.000209809
54.2507	0.000209809
54.5007	0.000205995
54.7507	0.00020218
55.0007	0.000198365
55.2507	0.00019455
55.5007	0.00019455
55.7499	0.000186921
56.0007	0.000183106
56.2507	0.000183106
56.5007	0.000179292
56.7507	0.000179292
57.0007	0.000175477
57.2507	0.000171662
57.5007	0.000167848
57.7507	0.000167848
58.0007	0.000167848
58.2507	0.000164033
58.5007	0.000160218
58.7507	0.000152589
59.0007	0.000152589
59.2507	0.000144959
59.5007	0.000141145
59.7507	0.00013733
60.0007	0.00013733
60.2507	0.000133515
60.5007	0.000133515
60.7507	0.000129701
61.0007	0.000122071
61.2507	0.000118256
61.5007	0.000110627
61.7507	0.000110627
62.0007	0.000110627
62.2507	0.000102997
62.5007	0.000102997
62.7507	9.92E-05
63.0007	9.54E-05
63.2507	9.92E-05
63.5007	9.54E-05
63.7507	8.77E-05
64.0007	8.39E-05
64.2507	7.63E-05
64.5007	7.63E-05
64.7507	7.25E-05
65.0007	6.87E-05
65.2507	6.49E-05
65.5007	6.10E-05
65.7507	5.34E-05
66.0006	4.96E-05
66.2506	5.34E-05
66.5006	5.34E-05
66.7506	4.96E-05
67.0006	4.96E-05
67.2506	4.58E-05
67.5006	4.20E-05
67.7506	3.81E-05
68.0006	4.20E-05
68.2506	3.81E-05
68.5006	3.43E-05
68.7506	3.05E-05
69.0006	3.43E-05
69.2506	2.67E-05
69.5006	2.67E-05
69.7506	2.29E-05
70.0006	2.29E-05
70.2506	2.29E-05
70.5006	2.29E-05
70.7506	2.29E-05
71.0006	2.29E-05
71.2506	2.29E-05
71.5006	2.29E-05
71.7506	1.91E-05
72.0006	2.29E-05
72.2506	1.53E-05
72.5006	1.53E-05
72.7506	1.53E-05
73.0006	1.14E-05
73.2506	1.91E-05
73.5006	1.53E-05
73.7506	1.53E-05
74.0006	1.53E-05
74.2506	1.53E-05
74.5006	1.53E-05
74.7506	1.53E-05
75.0006	1.14E-05
75.2506	1.14E-05
75.5006	1.14E-05
75.7506	1.14E-05
76.0006	1.14E-05
76.2506	1.14E-05
76.5004	1.14E-05
76.7505	1.14E-05
77.0006	1.14E-05
77.2506	1.53E-05
77.5006	1.53E-05
77.7506	1.53E-05
78.0006	1.91E-05
78.2506	1.53E-05
78.5006	1.14E-05
78.7506	1.91E-05
79.0005	1.53E-05
79.2505	1.14E-05
79.5005	1.14E-05
79.7505	1.53E-05
80.0005	1.53E-05
80.2505	1.53E-05
80.5005	1.53E-05
80.7505	1.53E-05
81.0005	1.53E-05
81.2505	1.53E-05
81.5005	1.53E-05
81.7505	1.91E-05
82.0005	1.14E-05
82.2505	1.53E-05
82.5005	1.53E-05
82.7505	1.91E-05
83.0005	1.53E-05
83.2505	1.91E-05
83.5005	1.91E-05
83.7505	1.91E-05
84.0005	1.53E-05
84.2505	1.53E-05
84.5005	1.91E-05
84.7505	1.53E-05
85.0005	1.91E-05
85.2505	1.91E-05
85.5005	1.53E-05
85.7505	1.53E-05
86.0005	1.91E-05
86.2505	1.91E-05
86.5005	1.53E-05
86.7505	1.91E-05
87.0005	1.91E-05
87.2505	1.53E-05
87.5005	1.91E-05
87.7505	1.91E-05
88.0005	1.91E-05
88.2505	1.91E-05
88.5005	1.53E-05
88.7505	1.53E-05
89.0005	1.53E-05
89.2505	1.53E-05
89.5005	1.91E-05
89.7505	1.91E-05
90.0005	1.53E-05
90.2505	1.91E-05
90.5005	1.91E-05
90.7505	1.91E-05
91.0005	1.91E-05
91.2505	2.29E-05
91.5005	2.29E-05
91.7505	1.91E-05
92.0005	1.53E-05
92.2505	1.91E-05
92.5005	1.53E-05
92.7504	1.91E-05
93.0004	1.53E-05
93.2504	1.53E-05
93.5004	1.14E-05
93.7504	1.53E-05
94.0004	1.14E-05
94.2504	1.14E-05
94.5004	1.53E-05
94.7504	1.53E-05
95.0004	1.14E-05
95.2504	1.53E-05
95.5004	1.14E-05
95.7504	1.14E-05
96.0004	1.14E-05
96.2504	1.53E-05
96.5004	1.14E-05
96.7504	1.14E-05
97.0004	1.14E-05
97.2504	1.53E-05
97.5004	1.14E-05
97.7504	7.63E-06
98.0004	7.63E-06
98.2504	7.63E-06
98.5004	1.14E-05
98.7503	1.14E-05
99.0004	1.14E-05
99.2504	1.14E-05
99.5004	7.63E-06
99.7504	1.14E-05
100	1.14E-05
100.25	1.14E-05
100.5	1.14E-05
100.75	1.14E-05
101	1.14E-05
101.25	7.63E-06
101.5	1.14E-05
101.75	1.14E-05
102	7.63E-06
102.25	7.63E-06
102.5	1.14E-05
102.75	7.63E-06
103	7.63E-06
103.25	7.63E-06
103.5	7.63E-06
103.75	1.14E-05
104	7.63E-06
104.25	7.63E-06
104.5	7.63E-06
104.75	7.63E-06
105	3.81E-06
105.25	7.63E-06
105.5	3.81E-06
105.75	3.81E-06
106	3.81E-06
106.25	3.81E-06
106.5	0
106.75	7.63E-06
107	7.63E-06
107.25	3.81E-06
107.5	3.81E-06
107.75	7.63E-06
108	0
108.25	3.81E-06
108.5	1.14E-05
108.75	7.63E-06
109	3.81E-06
109.25	3.81E-06
109.5	3.81E-06
109.75	3.81E-06
110	0
110.25	3.81E-06
110.5	0
110.75	3.81E-06
111	0
111.25	0
111.5	0
111.75	3.81E-06
112	3.81E-06
112.25	0
112.5	3.81E-06
112.75	0
113	3.81E-06
113.25	3.81E-06
113.5	0
113.75	3.81E-06
114	3.81E-06
114.25	0
114.5	7.63E-06
114.75	0
115	3.81E-06
115.25	0
115.5	0
115.75	0
116	0
116.25	3.81E-06
116.5	0
116.75	3.81E-06
117	3.81E-06
117.25	0
117.5	3.81E-06
117.75	0
118	3.81E-06
118.25	3.81E-06
118.5	3.81E-06
118.75	3.81E-06
119	3.81E-06
119.25	3.81E-06
119.5	3.81E-06
119.75	3.81E-06
120	3.81E-06
120.25	0
120.5	3.81E-06
120.75	0
121	3.81E-06
121.25	7.63E-06
121.5	3.81E-06
121.75	3.81E-06
122	7.63E-06
122.25	1.14E-05
122.5	7.63E-06
122.75	7.63E-06
123	7.63E-06
123.25	7.63E-06
123.5	7.63E-06
123.75	7.63E-06
124	3.81E-06
124.25	1.14E-05
124.5	1.14E-05
124.75	7.63E-06
125	1.14E-05
125.25	7.63E-06
125.5	1.14E-05
125.75	1.14E-05
126	1.14E-05
126.25	2.29E-05
126.5	2.67E-05
126.75	3.05E-05
127	4.58E-05
127.25	4.20E-05
127.5	4.20E-05
127.75	4.20E-05
128	4.20E-05
128.25	4.20E-05
128.5	3.81E-05
128.75	4.20E-05
129	4.20E-05
129.25	4.58E-05
129.5	4.58E-05
129.75	4.20E-05
130	4.58E-05
130.25	4.58E-05
130.5	4.96E-05
130.75	4.96E-05
131	5.34E-05
131.25	5.72E-05
131.5	5.34E-05
131.75	5.34E-05
132	4.96E-05
132.25	3.43E-05
132.5	2.29E-05
132.75	1.91E-05
133	1.14E-05
133.25	7.63E-06
133.5	1.53E-05
133.75	1.14E-05
134	1.53E-05
134.25	1.14E-05
134.5	1.14E-05
134.75	1.14E-05
135	1.14E-05
135.25	1.14E-05
135.5	1.14E-05
135.75	1.14E-05
136	1.53E-05
136.25	1.53E-05
136.5	7.63E-06
136.75	1.14E-05
137	1.14E-05
137.25	1.14E-05
137.5	1.14E-05
137.75	1.14E-05
138	1.53E-05
138.25	1.14E-05
138.5	1.14E-05
138.75	1.14E-05
139	1.14E-05
139.25	1.14E-05
139.5	1.14E-05
139.75	1.53E-05
140	1.14E-05
140.25	1.53E-05
140.5	1.53E-05
140.75	1.53E-05
141	1.53E-05
141.25	1.14E-05
141.5	1.91E-05
141.75	1.53E-05
142	1.53E-05
142.25	1.53E-05
142.5	1.53E-05
142.75	1.53E-05
143	1.14E-05
143.25	1.53E-05
143.5	1.53E-05
143.75	1.53E-05
144	1.14E-05
144.25	1.53E-05
144.5	1.53E-05
144.75	1.14E-05
145	1.53E-05
145.25	1.14E-05
145.5	1.53E-05
145.75	1.14E-05
146	1.91E-05
146.25	7.63E-06
146.5	1.14E-05
146.75	1.14E-05
147	7.63E-06
147.25	1.14E-05
147.5	1.53E-05
147.75	1.53E-05
148	1.53E-05
148.249	1.14E-05
148.5	1.14E-05
148.75	1.53E-05
149	1.14E-05
149.25	1.14E-05
149.5	1.53E-05
149.75	1.14E-05
150	1.14E-05
150	1.53E-05
-33.9987	0.000499729
-33.7487	0.0004921
-33.4987	0.000484468
-33.2487	0.000480654
-32.9987	0.000473024
-32.7487	0.000457766
-32.4987	0.000453951
-32.2487	0.000446321
-31.9987	0.000450136
-31.7487	0.000446321
-31.4987	0.000442507
-31.2487	0.000434877
-30.9987	0.000423433
-30.7487	0.000427248
-30.4987	0.000427248
-30.2487	0.000423433
-29.9987	0.000419619
-29.7487	0.000419619
-29.4987	0.000411989
-29.2487	0.000415804
-28.9987	0.000411989
-28.7487	0.000411989
-28.4987	0.000408174
-28.2487	0.000408174
-27.9987	0.00040436
-27.7487	0.000408174
-27.4987	0.000411989
-27.2487	0.00040436
-26.9987	0.000411989
-26.7487	0.00040436
-26.4987	0.00040436
-26.2487	0.00039673
-25.9987	0.00040436
-25.7487	0.000400545
-25.4987	0.00039673
-25.2487	0.00039673
-24.9988	0.000392916
-24.7487	0.000392916
-24.4988	0.00039673
-24.2488	0.00039673
-23.9988	0.000392916
-23.7488	0.000392916
-23.4988	0.000400545
-23.2488	0.000392916
-22.9988	0.00039673
-22.7488	0.000392916
-22.4988	0.00039673
-22.2488	0.000392916
-21.9988	0.000392916
-21.7488	0.00039673
-21.4988	0.000392916
-21.2488	0.000392916
-20.9988	0.000392916
-20.7488	0.000392916
-20.4988	0.000392916
-20.2488	0.000389101
-19.9988	0.000392916
-19.7488	0.000392916
-19.4992	0.000392916
-19.2488	0.000392916
-18.9988	0.000392916
-18.7488	0.00039673
-18.4988	0.000392916
-18.2488	0.00039673
-17.9988	0.00039673
-17.7488	0.00039673
-17.4988	0.00039673
-17.2488	0.00039673
-16.9988	0.000392916
-16.7488	0.00039673
-16.4988	0.000392916
-16.2488	0.000392916
-15.9988	0.000392916
-15.7488	0.000389101
-15.4988	0.000392916
-15.2488	0.000392916
-14.9988	0.000392916
-14.7488	0.00039673
-14.4988	0.00039673
-14.2488	0.000400545
-13.9988	0.000400545
-13.7488	0.000400545
-13.4988	0.000400545
-13.2488	0.00039673
-12.9988	0.000400545
-12.7489	0.00039673
-12.4989	0.00039673
-12.2489	0.00039673
-11.9989	0.000392916
-11.7495	0.000392916
-11.4989	0.000392916
-11.2489	0.00039673
-10.9989	0.000400545
-10.7489	0.00039673
-10.4989	0.000400545
-10.2489	0.000408174
-9.99887	0.000400545
-9.74887	0.000400545
-9.49887	0.000400545
-9.24889	0.00040436
-8.99887	0.000400545
-8.74889	0.000400545
-8.49889	0.000400545
-8.24889	0.00040436
-7.99889	0.00040436
-7.74889	0.00040436
-7.49889	0.000400545
-7.24889	0.00040436
-6.9989	0.000408174
-6.74889	0.000408174
-6.4989	0.000408174
-6.2489	0.00040436
-5.9989	0.000400545
-5.7489	0.00040436
-5.4989	0.000400545
-5.24892	0.000400545
-4.9989	0.000400545
-4.74892	0.000400545
-4.49892	0.00040436
-4.24892	0.00040436
-3.99892	0.000408174
-3.74892	0.000411989
-3.49893	0.000408174
-3.24892	0.000400545
-2.99893	0.00040436
-2.74892	0.000408174
-2.49893	0.000400545
-2.24893	0.000400545
-1.99893	0.00040436
-1.74893	0.000400545
-1.49893	0.00040436
-1.24895	0.00040436
-0.999146	0.00040436
-0.749603	0.000408174
-0.498947	0.000408174
-0.248947	0.000411989
0.00105286	0.000408174
0.251053	0.000400545
0.501038	0.00040436
0.751053	0.000411989
1.00104	0.000400545
1.25104	0.00040436
1.50104	0.000400545
1.75104	0.000400545
2.00104	0.000400545
2.25089	0.00040436
2.50104	0.000408174
2.75102	0.00040436
3.00104	0.000408174
3.25102	0.00040436
3.50102	0.00040436
3.75102	0.000408174
4.00102	0.000408174
4.25102	0.000408174
4.50101	0.000400545
4.75102	0.000400545
5.00101	0.00039673
5.25099	0.000400545
5.50101	0.000400545
5.75101	0.00040436
6.00101	0.00040436
6.25099	0.000408174
6.50101	0.00040436
6.75099	0.00040436
7.001	0.000408174
7.25099	0.00040436
7.501	0.00040436
7.75099	0.000408174
8.00098	0.000400545
8.25098	0.000400545
8.50098	0.000400545
8.75098	0.000400545
9.00098	0.00039673
9.25098	0.000400545
9.50098	0.00039673
9.75098	0.000400545
10.001	0.00039673
10.251	0.000400545
10.501	0.00039673
10.7504	0.00039673
11.0001	0.000400545
11.251	0.000400545
11.501	0.00039673
11.751	0.00039673
12.001	0.00039673
12.251	0.000400545
12.5009	0.00039673
12.751	0.00039673
13.0009	0.000400545
13.251	0.00039673
13.5009	0.00039673
13.7509	0.000392916
14.0009	0.000392916
14.2509	0.00039673
14.5009	0.000392916
14.7509	0.000392916
15.0009	0.000389101
15.2508	0.000392916
15.5009	0.000392916
15.7509	0.000389101
16.0009	0.000392916
16.2509	0.000389101
16.5009	0.000392916
16.7509	0.000392916
17.0009	0.000392916
17.2509	0.000392916
17.5009	0.000392916
17.7509	0.000392916
18.0009	0.000389101
18.2509	0.000385286
18.5009	0.000385286
18.7505	0.000385286
19.0009	0.000385286
19.2509	0.000385286
19.5009	0.000385286
19.7509	0.000385286
20.0009	0.000389101
20.2509	0.000392916
20.5009	0.000392916
20.7509	0.000389101
21.0009	0.000392916
21.2509	0.000392916
21.5009	0.000385286
21.7509	0.000385286
22.0009	0.000377657
22.2509	0.000381472
22.5009	0.000377657
22.7509	0.000381472
23.0009	0.000377657
23.2509	0.000381472
23.5009	0.000377657
23.7509	0.000381472
24.0009	0.000377657
24.2509	0.000381472
24.5009	0.000373842
24.7509	0.000377657
25.0009	0.000377657
25.2509	0.000373842
25.5008	0.000370027
25.7507	0.000373842
26.0008	0.000370027
26.2508	0.000370027
26.5008	0.000370027
26.7508	0.000373842
27.0008	0.000373842
27.2508	0.000373842
27.5008	0.000373842
27.7508	0.000373842
28.0008	0.000373842
28.2508	0.000370027
28.5008	0.000366213
28.7508	0.000366213
29.0002	0.000366213
29.2508	0.000366213
29.5008	0.000366213
29.7508	0.000370027
30.0008	0.000366213
30.2508	0.000366213
30.5008	0.000366213
30.7508	0.000366213
31.0008	0.000362398
31.2508	0.000366213
31.5008	0.000362398
31.7508	0.000358583
32.0008	0.000358583
32.2508	0.000358583
32.5008	0.000354769
32.7508	0.000354769
33.0008	0.000358583
33.2508	0.000354769
33.5008	0.000354769
33.7508	0.000350954
34.0008	0.000354769
34.2508	0.000354769
34.5008	0.000350954
34.7508	0.000350954
35.0008	0.000354769
35.2508	0.000347139
35.5008	0.000350954
35.7508	0.00033951
35.9985	0.00033951
36.2508	0.00033951
36.5008	0.00033951
36.7508	0.00033951
37.0008	0.00033951
37.2508	0.00033951
37.5008	0.00033951
37.7508	0.00033951
38.0008	0.00033951
38.2508	0.00033951
38.5007	0.00033951
38.7508	0.000335695
39.0007	0.00033951
39.2507	0.00033951
39.5007	0.000335695
39.7507	0.000331881
40.0007	0.000335695
40.2507	0.000331881
40.5007	0.000331881
40.7507	0.000328066
41.0007	0.000324251
41.2507	0.000324251
41.5007	0.000320436
41.7507	0.000324251
42.0007	0.000324251
42.2507	0.000328066
42.4998	0.000324251
42.7507	0.000324251
43.0002	0.000324251
43.249	0.000320436
43.5007	0.000316622
43.7507	0.000316622
44.0007	0.000312807
44.2507	0.000312807
44.5007	0.000316622
44.7507	0.000316622
45.0007	0.000316622
45.2507	0.000316622
45.5007	0.000316622
45.7507	0.000312807
46.0007	0.000312807
46.2507	0.000301363
46.5007	0.000305178
46.7507	0.000301363
47.0007	0.000301363
47.2507	0.000301363
47.5007	0.000301363
47.7507	0.000301363
48.0007	0.000308992
48.2507	0.000308992
48.5007	0.000301363
48.7507	0.000305178
49.0007	0.000297548
49.2507	0.000293734
49.5007	0.000289919
49.7507	0.000289919
50.0007	0.000286104
50.2507	0.000289919
50.5007	0.000282289
50.7507	0.000289919
51.0006	0.000289919
51.2506	0.000293734
51.5006	0.000289919
51.7506	0.000289919
52.0006	0.000289919
52.2506	0.000289919
52.5006	0.000282289
52.7506	0.000282289
53.0006	0.00027466
53.2506	0.000270845
53.5006	0.00027466
53.7506	0.00027466
54.0006	0.000270845
54.2506	0.000270845
54.5006	0.000267031
54.7491	0.00027466
55.0006	0.000270845
55.2506	0.000270845
55.5006	0.000270845
55.7506	0.000267031
56.0006	0.000263216
56.2506	0.000255587
56.5006	0.000251772
56.7506	0.000247957
57.0006	0.000247957
57.2506	0.000247957
57.5006	0.000247957
57.7506	0.000247957
58.0006	0.000247957
58.2506	0.000251772
58.5006	0.000244142
58.7506	0.000240327
59.0006	0.000236512
59.2506	0.000236512
59.5006	0.000236512
59.7506	0.000236512
60.0006	0.000228883
60.2506	0.000225068
60.5006	0.000213624
60.7506	0.000213624
61.0006	0.000217439
61.2506	0.000213624
61.5006	0.000209809
61.7506	0.000209809
62.0006	0.000198365
62.2506	0.000198365
62.5006	0.00019455
62.7501	0.00019455
63.0006	0.00019455
63.2506	0.000186921
63.5006	0.000183106
63.7506	0.000171662
64.0005	0.000171662
64.2505	0.000167848
64.5005	0.000160218
64.7505	0.000156404
65.0005	0.000144959
65.2505	0.000148774
65.5005	0.000148774
65.7505	0.000141145
66.0005	0.000133515
66.2505	0.00013733
66.5005	0.000129701
66.7505	0.000125886
67.0005	0.000118256
67.2505	0.000118256
67.5005	0.000114441
67.7505	0.000106812
68.0005	0.000102997
68.2505	0.000102997
68.5005	9.54E-05
68.7505	9.16E-05
69.0003	9.16E-05
69.2505	9.54E-05
69.5005	8.77E-05
69.7505	8.77E-05
70.0005	8.39E-05
70.2505	8.39E-05
70.5005	8.39E-05
70.7505	7.63E-05
71.0005	7.63E-05
71.2505	7.25E-05
71.5005	7.25E-05
71.7505	6.87E-05
72.0005	6.49E-05
72.2505	6.49E-05
72.5005	6.10E-05
72.7505	6.10E-05
73.0005	6.10E-05
73.2505	6.10E-05
73.5005	5.72E-05
73.7505	5.72E-05
73.9994	5.34E-05
74.2505	4.96E-05
74.5003	4.96E-05
74.7505	4.96E-05
75.0005	4.96E-05
75.2505	4.96E-05
75.5005	4.96E-05
75.7505	4.96E-05
76.0005	4.20E-05
76.2505	4.20E-05
76.5005	3.81E-05
76.7505	4.58E-05
77.0005	3.81E-05
77.2505	3.43E-05
77.5005	3.43E-05
77.7504	3.81E-05
77.9987	3.43E-05
78.2504	3.43E-05
78.5004	3.81E-05
78.7504	3.43E-05
79.0004	3.05E-05
79.2504	3.05E-05
79.5004	3.05E-05
79.7504	3.05E-05
80.0004	3.05E-05
80.2504	3.05E-05
80.5004	3.43E-05
80.7504	3.43E-05
81.0004	3.05E-05
81.2504	2.67E-05
81.5004	2.67E-05
81.7504	2.67E-05
82.0004	2.67E-05
82.2504	2.67E-05
82.5004	2.29E-05
82.7504	2.29E-05
83.0004	2.29E-05
83.2504	2.29E-05
83.5004	2.29E-05
83.7504	2.29E-05
84.0004	1.91E-05
84.2504	1.14E-05
84.5004	7.63E-06
84.7504	7.63E-06
85.0004	1.53E-05
85.2504	1.14E-05
85.5004	7.63E-06
85.7504	7.63E-06
86.0004	1.14E-05
86.2504	1.14E-05
86.5004	7.63E-06
86.7504	7.63E-06
87.0004	7.63E-06
87.2504	7.63E-06
87.5004	7.63E-06
87.7504	7.63E-06
88.0001	3.81E-06
88.2504	7.63E-06
88.5004	7.63E-06
88.7504	7.63E-06
89.0004	3.81E-06
89.2504	7.63E-06
89.5004	7.63E-06
89.7504	7.63E-06
90.0004	3.81E-06
90.2503	3.81E-06
90.5003	3.81E-06
90.7503	0
91.0003	3.81E-06
91.2503	3.81E-06
91.5003	3.81E-06
91.7503	0
92.0003	7.63E-06
92.2503	3.81E-06
92.5003	0
92.7503	3.81E-06
93.0003	7.63E-06
93.2503	7.63E-06
93.5003	7.63E-06
93.7503	3.81E-06
94.0003	3.81E-06
94.2503	0
94.5003	0
94.7503	0
95.0003	3.81E-06
95.2503	0
95.5003	0
95.7503	0
96.0003	0
96.2503	3.81E-06
96.5003	0
96.7503	0
97.0003	3.81E-06
97.2503	3.81E-06
97.5003	0
97.7503	3.81E-06
98.0003	3.81E-06
98.2503	3.81E-06
98.5003	3.81E-06
98.7503	7.63E-06
99.0003	0
99.2503	0
99.5003	0
99.7503	3.81E-06
100	0
100.25	3.81E-06
100.5	3.81E-06
100.75	3.81E-06
101	7.63E-06
101.25	1.14E-05
101.5	0
101.75	7.63E-06
102	0
102.25	3.81E-06
102.5	7.63E-06
102.75	7.63E-06
103	3.81E-06
103.25	3.81E-06
103.5	3.81E-06
103.75	7.63E-06
104	3.81E-06
104.25	7.63E-06
104.5	3.81E-06
104.75	3.81E-06
105	3.81E-06
105.25	3.81E-06
105.5	0
105.75	0
106	0
106.25	3.81E-06
106.5	0
106.75	0
107	0
107.25	0
107.5	0
107.75	0
108	0
108.25	3.81E-06
108.5	3.81E-06
108.75	3.81E-06
109	3.81E-06
109.25	0
109.5	0
109.75	0
110	7.63E-06
110.25	3.81E-06
110.5	3.81E-06
110.75	3.81E-06
111	7.63E-06
111.25	1.14E-05
111.5	1.91E-05
111.75	2.29E-05
112	3.05E-05
112.25	3.43E-05
112.5	3.43E-05
112.75	3.05E-05
113	3.05E-05
113.25	2.67E-05
113.5	3.05E-05
113.75	3.05E-05
114	4.20E-05
114.25	3.81E-05
114.5	3.81E-05
114.75	4.20E-05
115	3.43E-05
115.25	4.20E-05
115.5	3.81E-05
115.75	4.20E-05
116	4.20E-05
116.25	4.58E-05
116.5	4.96E-05
116.75	4.58E-05
117	5.34E-05
117.25	4.96E-05
117.5	5.34E-05
117.75	5.34E-05
118	5.34E-05
118.25	5.34E-05
118.5	5.72E-05
118.75	5.72E-05
119	6.10E-05
119.25	6.87E-05
119.5	6.87E-05
119.75	7.25E-05
120	7.25E-05
120.25	7.25E-05
120.5	6.87E-05
120.75	5.72E-05
121	3.43E-05
121.25	1.91E-05
121.5	1.14E-05
121.75	7.63E-06
122	7.63E-06
122.25	1.14E-05
122.498	7.63E-06
122.75	7.63E-06
123	3.81E-06
123.25	3.81E-06
123.5	1.14E-05
123.75	1.14E-05
124	7.63E-06
124.25	1.14E-05
124.5	7.63E-06
124.75	7.63E-06
125	1.14E-05
125.25	1.14E-05
125.5	1.14E-05
125.75	1.14E-05
126	1.14E-05
126.25	1.53E-05
126.5	1.14E-05
126.75	1.14E-05
127	3.81E-06
127.25	1.14E-05
127.5	7.63E-06
127.75	1.14E-05
128	3.81E-06
128.25	7.63E-06
128.5	7.63E-06
128.75	1.14E-05
129	1.14E-05
129.25	1.14E-05
129.5	1.14E-05
129.75	1.14E-05
130	1.14E-05
130.25	1.14E-05
130.5	1.14E-05
130.75	1.14E-05
131	7.63E-06
131.25	7.63E-06
131.5	3.81E-06
131.75	7.63E-06
132	3.81E-06
132.249	7.63E-06
132.5	7.63E-06
132.75	1.14E-05
133	7.63E-06
133.25	7.63E-06
133.5	3.81E-06
133.75	1.14E-05
134	1.14E-05
134.25	1.14E-05
134.5	1.14E-05
134.75	1.14E-05
135	1.14E-05
135	1.14E-05
-48.9987	0.000347139
-48.7487	0.00033951
-48.4987	0.000331881
-48.2487	0.000328066
-47.9987	0.000320436
-47.7487	0.000305178
-47.4987	0.000297548
-47.2487	0.000293734
-46.9987	0.000293734
-46.7487	0.000293734
-46.4987	0.000289919
-46.2487	0.00027466
-45.9987	0.000270845
-45.7487	0.000270845
-45.4987	0.000270845
-45.2487	0.000270845
-44.9987	0.000263216
-44.7487	0.000263216
-44.4987	0.000263216
-44.2487	0.000255587
-43.9987	0.000259401
-43.7487	0.000259401
-43.4987	0.000255587
-43.2487	0.000251772
-42.9987	0.000251772
-42.7487	0.000255587
-42.4987	0.000251772
-42.2487	0.000247957
-41.9992	0.000247957
-41.7492	0.000247957
-41.4987	0.000244142
-41.2487	0.000240327
-40.9987	0.000244142
-40.7487	0.000244142
-40.4987	0.000240327
-40.2487	0.000240327
-39.9988	0.000240327
-39.7487	0.000236512
-39.4988	0.000236512
-39.2488	0.000236512
-38.9988	0.000240327
-38.7488	0.000236512
-38.4988	0.000236512
-38.2488	0.000240327
-37.9988	0.000236512
-37.7488	0.000240327
-37.4988	0.000240327
-37.2488	0.000240327
-36.9988	0.000240327
-36.7488	0.000240327
-36.4988	0.000236512
-36.2488	0.000236512
-35.9988	0.000232697
-35.7488	0.000236512
-35.4988	0.000236512
-35.2488	0.000236512
-34.9988	0.000236512
-34.7488	0.000240327
-34.4988	0.000240327
-34.2488	0.000240327
-33.9988	0.000240327
-33.7488	0.000236512
-33.4988	0.000240327
-33.2488	0.000240327
-32.9988	0.000236512
-32.7488	0.000240327
-32.4988	0.000240327
-32.2488	0.000236512
-31.9988	0.000236512
-31.7488	0.000240327
-31.4988	0.000236512
-31.2488	0.000236512
-30.9993	0.000240327
-30.7488	0.000236512
-30.4996	0.000240327
-30.2491	0.000240327
-29.9988	0.000247957
-29.7488	0.000240327
-29.4988	0.000244142
-29.2488	0.000244142
-28.9988	0.000244142
-28.7488	0.000244142
-28.4988	0.000244142
-28.2488	0.000244142
-27.9988	0.000244142
-27.7489	0.000240327
-27.4989	0.000247957
-27.2489	0.000240327
-26.9989	0.000244142
-26.7489	0.000240327
-26.4989	0.000247957
-26.2489	0.000247957
-25.9989	0.000255587
-25.7489	0.000251772
-25.4997	0.000247957
-25.2489	0.000247957
-24.9989	0.000251772
-24.7489	0.000251772
-24.4989	0.000247957
-24.2489	0.000244142
-23.9989	0.000251772
-23.7489	0.000251772
-23.4989	0.000247957
-23.2489	0.000251772
-22.9989	0.000251772
-22.7489	0.000255587
-22.4989	0.000255587
-22.2489	0.000255587
-21.9989	0.000251772
-21.7489	0.000255587
-21.4989	0.000255587
-21.2489	0.000255587
-20.9989	0.000251772
-20.7489	0.000255587
-20.4989	0.000251772
-20.2489	0.000255587
-19.9989	0.000255587
-19.7489	0.000255587
-19.4989	0.000259401
-19.2489	0.000259401
-18.9989	0.000259401
-18.7489	0.000263216
-18.4989	0.000255587
-18.2489	0.000259401
-17.9989	0.000259401
-17.7489	0.000259401
-17.5002	0.000259401
-17.2502	0.000259401
-16.9989	0.000259401
-16.75	0.000259401
-16.4989	0.000259401
-16.2489	0.000263216
-15.9989	0.000263216
-15.7489	0.000263216
-15.4989	0.000263216
-15.2489	0.000263216
-14.9989	0.000263216
-14.7489	0.000263216
-14.4991	0.000263216
-14.2493	0.000263216
-13.9992	0.000263216
-13.749	0.000263216
-13.499	0.000263216
-13.249	0.000263216
-12.999	0.000263216
-12.749	0.000263216
-12.499	0.000263216
-12.249	0.000267031
-11.999	0.000267031
-11.749	0.000267031
-11.499	0.000267031
-11.249	0.000267031
-10.999	0.000267031
-10.749	0.000267031
-10.499	0.000267031
-10.249	0.000267031
-9.99899	0.000267031
-9.74899	0.000267031
-9.49899	0.000267031
-9.24899	0.000267031
-8.99899	0.000267031
-8.74901	0.000270845
-8.49899	0.000267031
-8.24901	0.00027466
-8.00037	0.000270845
-7.74901	0.000270845
-7.499	0.000278475
-7.24901	0.000270845
-6.99902	0.00027466
-6.74902	0.000270845
-6.49902	0.00027466
-6.24902	0.00027466
-5.99902	0.000270845
-5.74902	0.000270845
-5.49902	0.000270845
-5.24902	0.00027466
-4.99902	0.000278475
-4.74903	0.00027466
-4.49903	0.000270845
-4.24904	0.00027466
-3.99903	0.000278475
-3.74904	0.00027466
-3.49904	0.000270845
-3.24904	0.00027466
-2.99904	0.000278475
-2.74905	0.000270845
-2.49905	0.000270845
-2.24905	0.00027466
-1.99905	0.000270845
-1.74905	0.000278475
-1.49905	0.000278475
-1.24905	0.000282289
-0.999062	0.000278475
-0.749062	0.00027466
-0.499062	0.00027466
-0.249069	0.00027466
0.000938416	0.000282289
0.250931	0.000282289
0.500931	0.000282289
0.750923	0.000282289
1.00093	0.000282289
1.25092	0.000282289
1.50092	0.000282289
1.75067	0.000286104
2.00092	0.000282289
2.25092	0.000286104
2.50092	0.000282289
2.75092	0.000282289
3.00091	0.000278475
3.25092	0.000278475
3.50091	0.000278475
3.7509	0.000278475
4.00091	0.000278475
4.2509	0.000286104
4.5009	0.000286104
4.75089	0.000282289
5.0009	0.000286104
5.25089	0.000286104
5.50089	0.000286104
5.75089	0.000289919
6.00089	0.000286104
6.25089	0.000286104
6.50088	0.000286104
6.75089	0.000282289
7.00088	0.000282289
7.25089	0.000286104
7.50088	0.000286104
7.75087	0.000286104
8.00087	0.000286104
8.25087	0.000286104
8.50087	0.000282289
8.75086	0.000286104
9.00087	0.000286104
9.25086	0.000286104
9.50086	0.000289919
9.75086	0.000286104
10.0009	0.000286104
10.2509	0.000286104
10.5008	0.000286104
10.7509	0.000286104
11.0008	0.000289919
11.2499	0.000289919
11.5002	0.000289919
11.7508	0.000289919
12.0008	0.000289919
12.2508	0.000289919
12.5008	0.000286104
12.7508	0.000286104
13.0008	0.000286104
13.2508	0.000286104
13.5008	0.000282289
13.7508	0.000286104
14.0008	0.000289919
14.2508	0.000289919
14.5008	0.000289919
14.7508	0.000289919
15.0008	0.000289919
15.2508	0.000289919
15.5008	0.000289919
15.7508	0.000289919
16.0008	0.000286104
16.2508	0.000289919
16.5008	0.000286104
16.7508	0.000289919
17.0008	0.000286104
17.2508	0.000289919
17.5008	0.000289919
17.7508	0.000286104
18.0008	0.000289919
18.2508	0.000289919
18.5008	0.000286104
18.7508	0.000289919
19.0008	0.000289919
19.2508	0.000289919
19.5008	0.000286104
19.7508	0.000289919
20.0008	0.000289919
20.2508	0.000289919
20.5008	0.000286104
20.7508	0.000289919
21.0008	0.000286104
21.2508	0.000286104
21.5008	0.000289919
21.7508	0.000289919
22.0008	0.000289919
22.2508	0.000286104
22.5008	0.000289919
22.7508	0.000289919
23.0008	0.000293734
23.2508	0.000293734
23.5007	0.000293734
23.7508	0.000289919
24.0007	0.000293734
24.2507	0.000289919
24.5007	0.000293734
24.7507	0.000289919
25.0007	0.000289919
25.2507	0.000289919
25.5007	0.000289919
25.7507	0.000293734
26.0007	0.000293734
26.2507	0.000293734
26.5007	0.000293734
26.7507	0.000293734
27.0007	0.000293734
27.2507	0.000293734
27.5007	0.000293734
27.7507	0.000293734
28.0007	0.000289919
28.2507	0.000293734
28.5007	0.000293734
28.7507	0.000297548
29.0007	0.000293734
29.2507	0.000297548
29.5007	0.000293734
29.7507	0.000293734
30.0007	0.000289919
30.2507	0.000289919
30.5007	0.000289919
30.7507	0.000293734
31.0007	0.000293734
31.2507	0.000289919
31.5007	0.000289919
31.7507	0.000293734
32.0007	0.000297548
32.2507	0.000293734
32.5007	0.000297548
32.7507	0.000301363
33.0007	0.000301363
33.2507	0.000297548
33.5007	0.000297548
33.7507	0.000297548
34.0007	0.000297548
34.2507	0.000297548
34.5007	0.000301363
34.7507	0.000301363
35.0007	0.000301363
35.2507	0.000301363
35.5007	0.000308992
35.7507	0.000308992
36.0006	0.000312807
36.2505	0.000308992
36.5006	0.000308992
36.7506	0.000312807
37.0006	0.000308992
37.2506	0.000312807
37.5006	0.000312807
37.7506	0.000312807
38.0006	0.000312807
38.2506	0.000316622
38.5006	0.000316622
38.7506	0.000316622
39.0006	0.000316622
39.2506	0.000320436
39.5006	0.000324251
39.7506	0.000324251
40.0006	0.000324251
40.2506	0.000324251
40.5006	0.000320436
40.7506	0.000320436
41.0006	0.000320436
41.2506	0.000324251
41.5006	0.000324251
41.7506	0.000335695
42.0006	0.00033951
42.2506	0.00033951
42.5006	0.00033951
42.7506	0.00033951
43.0006	0.00033951
43.2506	0.00033951
43.5006	0.000343325
43.7506	0.000347139
44.0006	0.000347139
44.2506	0.000347139
44.5006	0.000354769
44.7506	0.000354769
45.0006	0.000358583
45.2506	0.000362398
45.5006	0.000366213
45.7506	0.000366213
46.0006	0.000373842
46.2506	0.000370027
46.5006	0.000373842
46.7506	0.000381472
47.0006	0.000385286
47.2506	0.000389101
47.5006	0.000392916
47.7506	0.000392916
48.0006	0.00039673
48.2506	0.000400545
48.5006	0.00040436
48.7506	0.000400545
49.0005	0.000400545
49.2505	0.000408174
49.5005	0.000415804
49.7505	0.000419619
50.0005	0.000423433
50.2497	0.000438692
50.5005	0.000446321
50.7505	0.000450136
51.0005	0.00046158
51.2505	0.00046921
51.5005	0.000473024
51.7505	0.000484468
52.0005	0.000484468
52.2505	0.0004921
52.5005	0.0004921
52.7505	0.000495914
53.0005	0.000499729
53.2505	0.000503544
53.5005	0.000526432
53.7505	0.000537876
54.0005	0.000560764
54.2505	0.000568394
54.5005	0.000572208
54.7505	0.000583652
55.0005	0.000595096
55.2505	0.000606541
55.5005	0.000606541
55.7505	0.000617985
56.0005	0.000625614
56.2505	0.000637058
56.5005	0.000637058
56.7503	0.000656132
57.0005	0.00067902
57.2505	0.000698093
57.5002	0.000705723
57.7505	0.00073624
58.0003	0.000747684
58.2498	0.000762943
58.4995	0.000782017
58.7505	0.000782017
59.0005	0.000785831
59.2505	0.000789646
59.5005	0.00080109
59.7505	0.00080872
60.0005	0.000820164
60.2505	0.000831608
60.5005	0.000850681
60.7505	0.000885013
61.0005	0.000915531
61.2505	0.000934605
61.5005	0.000949863
61.7505	0.000984199
62.0005	0.000988014
62.2505	0.00100327
62.5005	0.00100709
62.7504	0.00102998
63.0004	0.00104905
63.2504	0.00106049
63.5004	0.00102998
63.7504	0.00102616
64.0004	0.00105286
64.2504	0.00109483
64.5004	0.00112534
64.7504	0.00115968
65.0004	0.00118638
65.2504	0.00122071
65.5004	0.00120927
65.7504	0.00119401
66.0004	0.00119019
66.2504	0.00119782
66.5004	0.00120545
66.7504	0.00123215
66.9994	0.00127793
67.2504	0.00130845
67.5004	0.00131989
67.7504	0.00139237
68.0004	0.00144578
68.2504	0.00152207
68.5004	0.00154496
68.7504	0.00152207
69.0004	0.00146867
69.2504	0.00148392
69.5004	0.00150681
69.7504	0.00153352
70.0004	0.0015564
70.2504	0.0015564
70.5004	0.00156022
70.7504	0.00159837
71.0004	0.00164796
71.2504	0.00174714
71.5004	0.00182725
71.7504	0.0019188
72.0004	0.00189591
72.2504	0.00187684
72.5004	0.00185395
72.7504	0.00190354
73.0004	0.0019188
73.25	0.00195314
73.5004	0.0019455
73.7504	0.00199892
74.0004	0.00200273
74.2504	0.00197984
74.5004	0.00192643
74.7504	0.00186539
75.0004	0.00176621
75.2503	0.00179292
75.5003	0.00184251
75.7503	0.00186539
76.0003	0.00179292
76.2503	0.00177384
76.5003	0.00179292
76.7503	0.00184632
77.0003	0.00181199
77.2503	0.00171281
77.5003	0.00162888
77.7503	0.00160218
78.0003	0.00159837
78.2503	0.00162125
78.5003	0.00166322
78.7503	0.00169373
79.0003	0.00171281
79.2503	0.00166322
79.5003	0.00160218
79.7503	0.001503
80.0003	0.00140763
80.2503	0.00133515
80.5003	0.00130082
80.7503	0.00129319
81.0003	0.00129319
81.2503	0.00126649
81.5003	0.0012436
81.7503	0.00115968
82.0003	0.00110627
82.2503	0.00111008
82.5003	0.0010872
82.7503	0.00103379
83.0003	0.000968937
83.2503	0.00092316
83.5003	0.000915531
83.7503	0.000877384
84.0003	0.000843052
84.2503	0.000778202
84.5003	0.000637058
84.7503	0.000381472
85.0003	0.000148774
85.2503	4.20E-05
85.5003	2.29E-05
85.7503	1.91E-05
86.0003	1.91E-05
86.2503	1.53E-05
86.5003	1.53E-05
86.7503	1.53E-05
87.0003	1.91E-05
87.2503	1.14E-05
87.5003	1.14E-05
87.7503	1.53E-05
88.0002	1.14E-05
88.2502	1.53E-05
88.5002	1.53E-05
88.7502	1.14E-05
89.0002	1.53E-05
89.2502	7.63E-06
89.5002	1.14E-05
89.7502	1.14E-05
90.0002	7.63E-06
90.2502	1.14E-05
90.5002	1.14E-05
90.7502	1.14E-05
91.0002	1.14E-05
91.2502	7.63E-06
91.5002	1.14E-05
91.7502	1.14E-05
92.0002	1.14E-05
92.2502	1.14E-05
92.5002	1.14E-05
92.7502	1.14E-05
93.0002	1.14E-05
93.2502	1.14E-05
93.5002	1.53E-05
93.7502	1.53E-05
94.0002	1.53E-05
94.2502	1.91E-05
94.5002	1.53E-05
94.7502	1.91E-05
95.0002	2.29E-05
95.2502	2.29E-05
95.5002	2.29E-05
95.7502	2.67E-05
96.0002	3.43E-05
96.2502	3.43E-05
96.5002	4.58E-05
96.7502	4.96E-05
97.0002	6.10E-05
97.2502	6.49E-05
97.5002	6.49E-05
97.7502	6.49E-05
98.0002	6.49E-05
98.2502	5.34E-05
98.5	4.58E-05
98.7502	3.81E-05
99.0002	3.43E-05
99.2502	3.43E-05
99.5002	3.43E-05
99.7502	3.43E-05
100	3.81E-05
100.25	3.43E-05
100.5	3.43E-05
100.75	3.81E-05
101	4.20E-05
101.25	4.58E-05
101.5	4.58E-05
101.75	4.20E-05
102	4.96E-05
102.25	4.96E-05
102.5	4.96E-05
102.75	4.96E-05
103	4.96E-05
103.25	4.96E-05
103.5	4.96E-05
103.749	5.34E-05
103.999	5.34E-05
104.25	6.10E-05
104.5	6.10E-05
104.75	6.49E-05
105	7.25E-05
105.25	7.25E-05
105.5	7.63E-05
105.75	7.63E-05
106	8.77E-05
106.25	8.01E-05
106.5	8.77E-05
106.75	9.54E-05
107	0.000102997
107.25	0.000106812
107.5	0.000110627
107.75	0.000110627
108	0.000118256
108.25	0.000122071
108.5	0.000133515
108.75	0.00013733
109	0.000152589
109.25	0.000156404
109.5	0.000167848
109.75	0.000160218
110	0.000133515
110.25	8.77E-05
110.5	4.96E-05
110.75	1.53E-05
111	7.63E-06
111.25	7.63E-06
111.5	7.63E-06
111.75	1.14E-05
112	7.63E-06
112.25	1.14E-05
112.5	1.14E-05
112.75	7.63E-06
113	1.14E-05
113.25	7.63E-06
113.5	7.63E-06
113.75	1.14E-05
114	7.63E-06
114.25	1.14E-05
114.5	1.53E-05
114.75	1.14E-05
115	1.14E-05
115.25	1.14E-05
115.5	1.14E-05
115.75	1.14E-05
116	7.63E-06
116.25	1.14E-05
116.5	1.14E-05
116.75	1.14E-05
117	1.14E-05
117.25	1.14E-05
117.5	1.53E-05
117.75	7.63E-06
118	1.14E-05
118.25	1.14E-05
118.5	1.14E-05
118.75	1.14E-05
119	7.63E-06
119.25	1.14E-05
119.5	1.53E-05
119.75	1.53E-05
120	1.53E-05
120	1.14E-05
-63.9987	0.000385286
-63.749	0.000362398
-63.4987	0.000347139
-63.2487	0.00033951
-62.9987	0.000320436
-62.7487	0.000301363
-62.4987	0.000289919
-62.2487	0.00027466
-61.9987	0.000270845
-61.7487	0.000263216
-61.4987	0.000244142
-61.2487	0.000228883
-60.9987	0.000213624
-60.7487	0.000209809
-60.4987	0.000205995
-60.2487	0.000198365
-59.9987	0.000190736
-59.7487	0.000186921
-59.4987	0.000175477
-59.2487	0.000171662
-58.9987	0.000164033
-58.7487	0.000160218
-58.4987	0.000156404
-58.2487	0.000148774
-57.9987	0.000144959
-57.7487	0.000141145
-57.4987	0.00013733
-57.2487	0.000129701
-56.9987	0.000129701
-56.7487	0.000122071
-56.4987	0.000122071
-56.2487	0.000114441
-55.9987	0.000114441
-55.7487	0.000110627
-55.4987	0.000110627
-55.2487	0.000102997
-54.9988	9.92E-05
-54.7487	9.92E-05
-54.4988	9.54E-05
-54.2488	9.16E-05
-53.9988	9.16E-05
-53.7488	9.16E-05
-53.4988	8.39E-05
-53.2488	8.39E-05
-52.9988	8.39E-05
-52.7488	8.01E-05
-52.4988	8.01E-05
-52.2488	8.01E-05
-51.9988	8.01E-05
-51.7488	7.25E-05
-51.4988	7.25E-05
-51.2488	7.25E-05
-50.9988	6.87E-05
-50.7488	6.87E-05
-50.4988	6.87E-05
-50.2488	6.87E-05
-49.9988	6.10E-05
-49.7488	6.49E-05
-49.4988	6.10E-05
-49.2488	6.49E-05
-48.9988	6.10E-05
-48.7488	5.72E-05
-48.4988	5.72E-05
-48.2488	5.34E-05
-47.9992	5.34E-05
-47.7488	4.96E-05
-47.4988	5.34E-05
-47.2488	4.96E-05
-46.9988	5.34E-05
-46.7488	4.96E-05
-46.4988	4.96E-05
-46.2488	5.34E-05
-45.9988	5.34E-05
-45.7488	4.96E-05
-45.4988	4.96E-05
-45.2488	4.58E-05
-44.9989	4.58E-05
-44.7488	4.96E-05
-44.4988	4.58E-05
-44.2488	4.96E-05
-43.9988	4.58E-05
-43.7488	4.96E-05
-43.4988	4.58E-05
-43.2488	4.58E-05
-42.9988	4.58E-05
-42.7489	4.58E-05
-42.4989	4.58E-05
-42.2489	4.58E-05
-41.9989	4.20E-05
-41.7489	4.20E-05
-41.4989	4.20E-05
-41.2489	4.58E-05
-40.9989	4.58E-05
-40.7489	3.81E-05
-40.4989	4.58E-05
-40.2489	4.20E-05
-39.9989	4.58E-05
-39.7489	4.20E-05
-39.4989	3.43E-05
-39.2489	4.20E-05
-38.9989	3.81E-05
-38.7489	4.20E-05
-38.4989	4.20E-05
-38.2489	3.81E-05
-37.9989	4.20E-05
-37.7489	3.81E-05
-37.4989	3.81E-05
-37.2489	3.81E-05
-36.9989	3.81E-05
-36.7489	4.20E-05
-36.4989	3.81E-05
-36.2489	3.81E-05
-35.9989	3.81E-05
-35.7489	3.81E-05
-35.4989	3.81E-05
-35.2489	4.20E-05
-34.9989	4.20E-05
-34.7489	4.20E-05
-34.4989	3.05E-05
-34.2489	3.43E-05
-33.9989	3.05E-05
-33.7489	3.81E-05
-33.4989	3.05E-05
-33.2489	3.43E-05
-32.9989	3.81E-05
-32.7498	3.43E-05
-32.4998	3.81E-05
-32.2499	3.81E-05
-31.9989	3.43E-05
-31.7489	3.05E-05
-31.4989	3.43E-05
-31.2489	3.81E-05
-30.9989	3.81E-05
-30.7489	3.81E-05
-30.4989	3.43E-05
-30.2489	3.81E-05
-29.9989	3.43E-05
-29.7489	3.05E-05
-29.499	3.43E-05
-29.2489	3.81E-05
-28.999	3.43E-05
-28.749	3.81E-05
-28.499	3.05E-05
-28.249	3.43E-05
-27.999	3.43E-05
-27.749	3.81E-05
-27.499	3.81E-05
-27.249	3.43E-05
-26.999	3.05E-05
-26.749	3.43E-05
-26.499	3.81E-05
-26.249	3.43E-05
-25.999	3.43E-05
-25.749	3.43E-05
-25.499	3.43E-05
-25.249	3.43E-05
-24.999	3.81E-05
-24.749	3.81E-05
-24.499	3.43E-05
-24.249	3.43E-05
-23.999	3.43E-05
-23.749	3.43E-05
-23.499	3.43E-05
-23.249	3.43E-05
-22.999	3.81E-05
-22.749	3.43E-05
-22.499	3.43E-05
-22.249	3.05E-05
-21.999	3.43E-05
-21.749	3.05E-05
-21.499	3.43E-05
-21.249	3.05E-05
-20.999	3.05E-05
-20.749	3.05E-05
-20.499	3.43E-05
-20.249	3.43E-05
-19.999	3.43E-05
-19.749	3.43E-05
-19.499	3.81E-05
-19.249	3.81E-05
-18.999	3.05E-05
-18.749	3.43E-05
-18.499	3.05E-05
-18.249	3.43E-05
-17.999	3.05E-05
-17.749	3.05E-05
-17.4991	3.43E-05
-17.249	3.43E-05
-16.9991	3.43E-05
-16.749	3.43E-05
-16.4991	3.43E-05
-16.2491	3.43E-05
-15.9991	3.05E-05
-15.7491	3.43E-05
-15.4991	3.05E-05
-15.2491	3.43E-05
-14.9991	3.05E-05
-14.7491	3.43E-05
-14.4991	3.05E-05
-14.2491	3.05E-05
-13.9991	3.43E-05
-13.7491	3.43E-05
-13.4991	3.43E-05
-13.2491	3.43E-05
-12.9991	3.05E-05
-12.7491	3.43E-05
-12.4991	3.05E-05
-12.2491	3.43E-05
-11.9991	3.05E-05
-11.7491	3.43E-05
-11.4991	3.05E-05
-11.2491	3.43E-05
-10.9991	3.05E-05
-10.7491	3.43E-05
-10.4991	3.43E-05
-10.2491	3.05E-05
-9.9991	3.43E-05
-9.74911	3.05E-05
-9.49911	3.43E-05
-9.24911	3.43E-05
-8.99911	3.05E-05
-8.74911	3.05E-05
-8.49912	3.43E-05
-8.24911	3.05E-05
-7.99912	3.05E-05
-7.74911	3.43E-05
-7.49912	3.43E-05
-7.24913	3.05E-05
-6.99913	3.05E-05
-6.74913	3.43E-05
-6.49913	3.43E-05
-6.24914	3.43E-05
-5.99913	3.43E-05
-5.74914	3.43E-05
-5.49917	3.43E-05
-5.24914	3.43E-05
-4.99915	3.43E-05
-4.74915	3.43E-05
-4.49915	3.43E-05
-4.24915	3.43E-05
-3.99915	3.43E-05
-3.74915	3.43E-05
-3.49915	3.43E-05
-3.24916	3.05E-05
-3.00006	3.43E-05
-2.74917	3.43E-05
-2.49916	3.43E-05
-2.24917	3.43E-05
-1.99916	3.43E-05
-1.74917	3.43E-05
-1.49917	3.43E-05
-1.24918	3.81E-05
-0.999176	3.43E-05
-0.749176	3.43E-05
-0.499184	3.43E-05
-0.249176	3.43E-05
0.000816345	3.43E-05
0.250816	3.43E-05
0.500809	3.43E-05
0.750816	3.81E-05
1.00081	3.43E-05
1.2508	3.43E-05
1.50081	3.81E-05
1.7508	3.43E-05
2.0008	3.81E-05
2.2508	3.81E-05
2.5008	3.81E-05
2.75079	3.43E-05
3.00076	3.43E-05
3.25079	3.43E-05
3.50079	3.43E-05
3.75079	3.43E-05
4.00079	3.43E-05
4.25079	3.43E-05
4.50078	3.81E-05
4.75079	3.81E-05
5.00078	3.81E-05
5.25077	3.43E-05
5.50078	3.81E-05
5.75077	3.43E-05
6.00077	3.43E-05
6.25076	3.43E-05
6.50077	3.81E-05
6.75076	3.81E-05
7.00077	3.81E-05
7.25076	3.81E-05
7.50076	3.81E-05
7.75076	3.81E-05
8.00076	3.81E-05
8.25076	3.81E-05
8.50075	3.81E-05
8.75076	3.81E-05
9.00075	3.81E-05
9.25074	3.43E-05
9.50075	3.81E-05
9.75074	3.81E-05
10.0007	3.81E-05
10.2507	3.81E-05
10.5007	3.81E-05
10.7507	4.20E-05
11.0007	3.81E-05
11.2507	3.43E-05
11.5007	3.81E-05
11.7507	3.81E-05
12.0007	3.81E-05
12.2507	3.81E-05
12.5007	3.81E-05
12.7507	4.20E-05
13.0007	3.81E-05
13.2507	3.43E-05
13.5007	4.20E-05
13.7507	3.81E-05
14.0007	3.81E-05
14.2507	3.81E-05
14.5007	3.81E-05
14.7507	3.81E-05
15.0007	4.20E-05
15.2507	4.20E-05
15.5007	4.20E-05
15.7502	3.81E-05
16.0007	3.81E-05
16.2507	3.81E-05
16.5007	4.20E-05
16.7507	4.20E-05
17.0007	4.20E-05
17.2507	3.81E-05
17.5007	4.20E-05
17.7507	3.81E-05
18.0007	3.81E-05
18.2507	3.81E-05
18.5007	3.81E-05
18.7507	4.20E-05
19.0003	4.20E-05
19.2502	3.81E-05
19.5007	4.20E-05
19.7507	4.20E-05
20.0007	4.20E-05
20.2507	3.81E-05
20.5007	4.20E-05
20.7507	4.20E-05
21.0006	4.20E-05
21.2506	4.58E-05
21.5006	3.81E-05
21.7506	4.58E-05
22.0006	4.58E-05
22.2506	4.58E-05
22.5006	4.20E-05
22.7506	4.58E-05
23.0006	4.58E-05
23.2506	4.58E-05
23.5006	4.96E-05
23.7494	4.96E-05
24.0006	4.96E-05
24.2506	4.58E-05
24.5006	4.96E-05
24.7506	4.96E-05
25.0006	4.58E-05
25.2506	4.96E-05
25.5006	4.96E-05
25.7506	4.96E-05
26.0006	4.96E-05
26.2506	4.96E-05
26.5006	4.96E-05
26.7506	4.96E-05
27.0006	4.96E-05
27.2506	4.96E-05
27.5006	4.96E-05
27.7506	5.34E-05
28.0006	4.96E-05
28.2506	5.34E-05
28.5006	5.72E-05
28.7506	5.34E-05
29.0006	4.96E-05
29.2506	5.72E-05
29.5006	6.10E-05
29.7506	5.72E-05
30.0006	5.72E-05
30.2506	5.72E-05
30.5006	6.10E-05
30.7506	6.10E-05
31.0006	6.49E-05
31.2506	6.49E-05
31.5006	6.49E-05
31.7506	6.10E-05
32.0006	6.49E-05
32.2506	6.49E-05
32.5006	6.87E-05
32.7506	6.87E-05
33.0006	6.49E-05
33.2506	6.87E-05
33.5006	6.87E-05
33.7506	7.25E-05
34.0005	7.63E-05
34.2505	7.63E-05
34.5005	7.63E-05
34.7505	7.63E-05
35.0005	7.63E-05
35.2505	8.01E-05
35.5005	8.01E-05
35.7505	8.39E-05
36.0005	8.39E-05
36.2505	8.77E-05
36.5005	8.77E-05
36.7505	9.16E-05
37.0005	9.54E-05
37.2505	9.16E-05
37.5005	9.16E-05
37.7505	9.92E-05
38.0005	9.54E-05
38.2505	0.000102997
38.5005	9.92E-05
38.7505	0.000102997
39.0005	0.000106812
39.2505	0.000110627
39.5005	0.000110627
39.7505	0.000114441
40.0005	0.000122071
40.2505	0.000122071
40.5005	0.000125886
40.7505	0.000129701
41.0005	0.000129701
41.2505	0.00013733
41.5005	0.000141145
41.7505	0.000152589
42.0005	0.000148774
42.2505	0.000152589
42.5005	0.000156404
42.7505	0.000156404
43.0005	0.000164033
43.2505	0.000171662
43.5005	0.000179292
43.7505	0.000183106
44.0005	0.000186921
44.2505	0.000198365
44.5005	0.00020218
44.7505	0.000209809
45.0005	0.000213624
45.2505	0.000217439
45.5005	0.000221253
45.7505	0.000236512
46.0005	0.000244142
46.2505	0.000247957
46.5005	0.000255587
46.7505	0.000267031
47.0005	0.000282289
47.2505	0.000286104
47.5005	0.000297548
47.7504	0.000312807
48.0004	0.000324251
48.2504	0.00033951
48.5004	0.000358583
48.7504	0.000373842
49.0004	0.000385286
49.2504	0.000400545
49.5004	0.000419619
49.7504	0.000446321
50.0004	0.00046921
50.2504	0.000488285
50.5004	0.000511173
50.7504	0.000537876
51.0004	0.000568394
51.2504	0.000591282
51.5004	0.000617985
51.7504	0.000652317
52.0004	0.000698093
52.2504	0.00074387
52.5004	0.00080872
52.7504	0.000858311
53.0004	0.000896458
53.2504	0.000965122
53.5004	0.00102235
53.7504	0.00110627
54.0004	0.00117875
54.2504	0.00129319
54.5004	0.00138474
54.7504	0.0014763
55.0004	0.00156022
55.2504	0.00166703
55.5004	0.00176621
55.7504	0.00189591
56.0004	0.00202943
56.2504	0.00217439
56.5004	0.00234987
56.7504	0.00255968
57.0004	0.0028
57.2504	0.00300981
57.5004	0.00322725
57.7504	0.00347902
58.0004	0.00372316
58.2504	0.00400928
58.5004	0.00432971
58.7504	0.00467685
59.0003	0.00502017
59.2504	0.00542834
59.5004	0.00586703
59.7504	0.00639728
60.0004	0.00678638
60.2503	0.00716022
60.5003	0.00748447
60.7503	0.00789267
61.0003	0.00841147
61.2503	0.00891882
61.5003	0.00942618
61.7503	0.00989157
62.0003	0.0103264
62.2503	0.0106507
62.5003	0.0110627
62.7503	0.0112725
63.0003	0.0116845
63.2503	0.0120125
63.5003	0.0126725
63.7503	0.0131264
64.0003	0.0137292
64.2503	0.0137559
64.5003	0.013855
64.7503	0.0139008
65.0003	0.0142441
65.2503	0.0145112
65.5003	0.0147896
65.7503	0.014782
66.0003	0.0148888
66.2503	0.0151673
66.5003	0.0156174
66.7503	0.015999
67.0003	0.0162698
67.2503	0.0165521
67.5003	0.0171205
67.7503	0.0172731
68.0003	0.0172006
68.2503	0.0167466
68.5003	0.0164491
68.7503	0.0162889
69.0003	0.0166017
69.2503	0.0168916
69.5003	0.0168458
69.7503	0.016678
70.0003	0.0166208
70.2503	0.0169069
70.5003	0.0171777
70.7503	0.0176011
71.0003	0.0175897
71.2503	0.0170709
71.5003	0.0177003
71.7503	0.0173494
72.0003	0.0171434
72.2503	0.016739
72.5003	0.0169412
72.7503	0.0169336
73.0002	0.0164148
73.2502	0.0164911
73.5002	0.0159456
73.7502	0.0160257
74.0002	0.0154229
74.2502	0.0154801
74.5002	0.0153542
74.7502	0.014885
75	0.0146714
75.2502	0.0140381
75.5002	0.0135689
75.7502	0.013218
76.0002	0.0132828
76.2502	0.013218
76.5002	0.0131913
76.7502	0.0129433
77.0002	0.0131035
77.2502	0.0131837
77.5002	0.0129891
77.7502	0.0123292
78.0002	0.0116692
78.2502	0.0109826
78.5002	0.0104828
78.7502	0.00994879
79.0002	0.00962454
79.2502	0.0101281
79.5002	0.00991446
79.7502	0.00954443
80.0002	0.00931555
80.2502	0.0091477
80.5002	0.00920874
80.7502	0.00886542
81.0002	0.00840384
81.2502	0.00775912
81.5002	0.00716403
81.7502	0.00735095
82.0002	0.0073128
82.2502	0.00699618
82.5002	0.00622562
82.7502	0.00559619
83.0002	0.00468448
83.2502	0.00302507
83.5002	0.00140382
83.7502	0.000522617
84.0002	0.000297548
84.2502	0.000232697
84.5002	0.00020218
84.7502	0.000183106
85.0002	0.000167848
85.2502	0.000156404
85.5002	0.000144959
85.7502	0.000129701
86.0001	0.000125886
86.2501	0.000118256
86.5001	0.000118256
86.7501	0.000114441
87.0001	0.000114441
87.2501	0.000110627
87.5001	0.000110627
87.7501	0.000102997
88.0001	0.000102997
88.2501	0.000102997
88.5001	0.000106812
88.7501	0.000110627
89.0001	0.000110627
89.2501	0.000114441
89.4981	0.000114441
89.7501	0.000114441
90.0001	0.000106812
90.2501	0.000110627
90.5001	0.000110627
90.7501	0.000118256
91.0001	0.000114441
91.2501	0.000114441
91.5001	0.000118256
91.7501	0.000118256
92.0001	0.000129701
92.2501	0.00013733
92.5001	0.000141145
92.7501	0.000141145
93.0001	0.000141145
93.2501	0.000144959
93.5001	0.000156404
93.7501	0.000164033
94.0001	0.000171662
94.2501	0.000183106
94.5001	0.000205995
94.7501	0.000213624
95	0.000232697
95.2498	0.000255587
95.5001	0.000263216
95.7501	0.000259401
96.0001	0.000263216
96.2501	0.000278475
96.5001	0.000301363
96.7501	0.000320436
97.0001	0.000343325
97.2501	0.000362398
97.5001	0.000381472
97.7501	0.000389101
98.0001	0.00039673
98.2501	0.000400545
98.5001	0.00040436
98.75	0.000381472
99	0.000286104
99.25	0.000167848
99.5	7.63E-05
99.75	2.29E-05
100	1.53E-05
100.25	1.14E-05
100.5	1.14E-05
100.75	1.14E-05
101	1.14E-05
101.25	1.14E-05
101.5	7.63E-06
101.75	7.63E-06
102	7.63E-06
102.25	7.63E-06
102.5	1.14E-05
102.75	1.14E-05
103	7.63E-06
103.25	7.63E-06
103.5	1.14E-05
103.75	1.14E-05
104	1.14E-05
104.25	1.14E-05
104.5	7.63E-06
104.75	7.63E-06
105	7.63E-06
105	1.14E-05
