Photodiode Viewing Angle (Degrees) - Plot 0	Lock-in Signal Amplitude (V) - Plot 0
-18.9987	0.00054932
-18.7487	0.000545505
-18.4987	0.000537876
-18.2487	0.000530247
-17.9987	0.000526432
-17.7487	0.000518803
-17.4987	0.000507358
-17.2487	0.000499729
-16.9987	0.0004921
-16.7487	0.0004921
-16.4987	0.0004921
-16.2487	0.000488285
-15.9987	0.000480654
-15.7487	0.000480654
-15.4987	0.000473024
-15.2487	0.000473024
-14.9987	0.000473024
-14.7487	0.00046921
-14.4987	0.000465395
-14.2487	0.000465395
-13.9987	0.000457766
-13.7487	0.000453951
-13.4987	0.000453951
-13.2487	0.000453951
-12.9987	0.000450136
-12.7487	0.000446321
-12.4987	0.000450136
-12.2487	0.000446321
-11.9987	0.000446321
-11.7487	0.000446321
-11.4987	0.000438692
-11.2487	0.000442507
-10.9987	0.000438692
-10.7487	0.000438692
-10.4987	0.000434877
-10.2487	0.000438692
-9.99876	0.000438692
-9.74875	0.000431063
-9.49876	0.000438692
-9.24876	0.000434877
-8.99876	0.000434877
-8.74876	0.000434877
-8.49876	0.000434877
-8.24878	0.000438692
-7.99876	0.000434877
-7.74878	0.000434877
-7.49878	0.000431063
-7.24878	0.000434877
-6.99878	0.000434877
-6.74878	0.000434877
-6.49994	0.000434877
-6.24878	0.000431063
-5.99879	0.000427248
-5.74878	0.000434877
-5.49879	0.000434877
-5.24879	0.000427248
-4.99879	0.000423433
-4.74879	0.000431063
-4.49881	0.000431063
-4.24879	0.000427248
-3.99879	0.000431063
-3.74881	0.000423433
-3.49881	0.000431063
-3.24881	0.000431063
-2.99881	0.000431063
-2.74881	0.000431063
-2.49881	0.000434877
-2.24881	0.000427248
-1.99883	0.000427248
-1.74883	0.000427248
-1.49883	0.000431063
-1.24883	0.000419619
-0.998825	0.000419619
-0.748825	0.000423433
-0.498825	0.000419619
-0.248856	0.000419619
0.00111389	0.000423433
0.25116	0.000423433
0.50116	0.000427248
0.75116	0.000423433
1.00116	0.000423433
1.25116	0.000431063
1.50116	0.000431063
1.75116	0.000423433
2.00116	0.000423433
2.25114	0.000423433
2.50114	0.000419619
2.75114	0.000419619
3.00114	0.000419619
3.25114	0.000423433
3.50114	0.000419619
3.75101	0.000419619
4.00113	0.000419619
4.25113	0.000419619
4.50113	0.000423433
4.75113	0.000427248
5.00113	0.000423433
5.25113	0.000427248
5.50113	0.000423433
5.75111	0.000419619
6.00113	0.000419619
6.25111	0.000419619
6.5011	0.000419619
6.75111	0.000419619
7.00111	0.000419619
7.25111	0.000419619
7.50111	0.000419619
7.75111	0.000427248
8.0011	0.000423433
8.25111	0.000423433
8.5011	0.000423433
8.7511	0.000427248
9.00012	0.000423433
9.2511	0.000423433
9.5011	0.000423433
9.75108	0.000423433
10.0011	0.000419619
10.2511	0.000419619
10.5011	0.000419619
10.7511	0.000419619
11.0011	0.000423433
11.2511	0.000427248
11.5011	0.000434877
11.7511	0.000431063
12.0011	0.000427248
12.2511	0.000427248
12.5011	0.000423433
12.7511	0.000419619
13.0011	0.000423433
13.2511	0.000423433
13.5011	0.000423433
13.7511	0.000427248
14.0011	0.000427248
14.2511	0.000427248
14.5011	0.000427248
14.7511	0.000431063
15.0011	0.000431063
15.2511	0.000431063
15.501	0.000434877
15.7511	0.000427248
16.001	0.000431063
16.2508	0.000431063
16.501	0.000434877
16.751	0.000427248
17.001	0.000423433
17.251	0.000419619
17.501	0.000423433
17.751	0.000427248
18.001	0.000423433
18.251	0.000427248
18.501	0.000427248
18.751	0.000431063
19.001	0.000431063
19.251	0.000434877
19.501	0.000434877
19.751	0.000434877
20.001	0.000427248
20.251	0.000427248
20.501	0.000427248
20.751	0.000423433
21.001	0.000419619
21.251	0.000423433
21.501	0.000431063
21.751	0.000431063
22.001	0.000431063
22.251	0.000427248
22.501	0.000427248
22.751	0.000427248
23.001	0.000438692
23.251	0.000434877
23.501	0.000438692
23.751	0.000438692
24.001	0.000438692
24.251	0.000438692
24.501	0.000434877
24.751	0.000431063
25.001	0.000423433
25.251	0.000423433
25.501	0.000423433
25.751	0.000423433
26.001	0.000427248
26.251	0.000423433
26.501	0.000427248
26.751	0.000431063
27.001	0.000434877
27.251	0.000427248
27.5009	0.000427248
27.751	0.000434877
28.0009	0.000427248
28.251	0.000427248
28.5009	0.000427248
28.7509	0.000427248
29.0009	0.000434877
29.2509	0.000431063
29.4991	0.000427248
29.7508	0.000415804
30.0009	0.000419619
30.2509	0.000415804
30.5009	0.000415804
30.7509	0.000415804
31.0009	0.000411989
31.2509	0.000411989
31.5009	0.000400545
31.7509	0.000400545
32.0009	0.00040436
32.2509	0.00040436
32.5009	0.000408174
32.7509	0.000400545
33.0009	0.000408174
33.2509	0.00040436
33.5009	0.00039673
33.7509	0.000392916
34.0009	0.000389101
34.2509	0.000389101
34.5009	0.000381472
34.7509	0.000381472
35.0009	0.000381472
35.2509	0.000381472
35.5009	0.000381472
35.7509	0.000385286
36.0009	0.000381472
36.2509	0.000381472
36.5009	0.000377657
36.7509	0.000377657
37.0009	0.000373842
37.2509	0.000366213
37.5009	0.000366213
37.7509	0.000358583
38.0009	0.000358583
38.2509	0.000354769
38.5009	0.000358583
38.7509	0.000358583
39.0009	0.000354769
39.2509	0.000350954
39.5009	0.000347139
39.7509	0.000347139
40.0009	0.000343325
40.2509	0.00033951
40.5008	0.00033951
40.7509	0.00033951
41.0008	0.000331881
41.2508	0.000335695
41.5008	0.000328066
41.7508	0.000324251
42.0008	0.000324251
42.2508	0.000328066
42.5008	0.000324251
42.7508	0.000320436
43.0008	0.000324251
43.2508	0.000320436
43.5008	0.000316622
43.7501	0.000312807
44.0006	0.000308992
44.2508	0.000305178
44.5008	0.000301363
44.7508	0.000297548
45.0008	0.000297548
45.2508	0.000297548
45.5008	0.000297548
45.7508	0.000297548
46.0008	0.000293734
46.2508	0.000293734
46.5008	0.000289919
46.7508	0.000289919
47.0008	0.000286104
47.2508	0.000286104
47.5001	0.000282289
47.7508	0.000278475
48.0008	0.000270845
48.2508	0.000270845
48.5008	0.000270845
48.7508	0.000270845
49.0008	0.000270845
49.2508	0.000267031
49.5008	0.000267031
49.7508	0.000263216
50.0008	0.000263216
50.2508	0.000263216
50.5008	0.000263216
50.7507	0.000255587
51.0008	0.000255587
51.2508	0.000247957
51.5008	0.000247957
51.7508	0.000244142
52.0008	0.000247957
52.2508	0.000240327
52.5008	0.000236512
52.7508	0.000236512
53.0008	0.000236512
53.2508	0.000236512
53.5007	0.000236512
53.7508	0.000232697
54.0007	0.000236512
54.2507	0.000236512
54.5007	0.000232697
54.7507	0.000228883
55.0007	0.000221253
55.2507	0.000221253
55.5007	0.000217439
55.7507	0.000221253
56.0007	0.000217439
56.2507	0.000209809
56.5007	0.000209809
56.7507	0.000209809
57.0007	0.000205995
57.2507	0.000205995
57.5007	0.000205995
57.7507	0.00020218
58.0007	0.000205995
58.2507	0.000205995
58.5007	0.000205995
58.7507	0.00020218
59.0007	0.000198365
59.2507	0.00019455
59.5007	0.000190736
59.7507	0.000183106
60.0007	0.000186921
60.2507	0.000183106
60.5007	0.000183106
60.7507	0.000183106
61.0007	0.000183106
61.2507	0.000175477
61.5006	0.000171662
61.7507	0.000171662
62.0007	0.000167848
62.2507	0.000167848
62.5007	0.000167848
62.7507	0.000167848
63.0007	0.000167848
63.2507	0.000160218
63.5007	0.000160218
63.7507	0.000160218
64.0007	0.000156404
64.2507	0.000156404
64.5007	0.000156404
64.7507	0.000152589
65.0007	0.000152589
65.2507	0.000141145
65.5007	0.000141145
65.7507	0.00013733
66.0006	0.00013733
66.2506	0.00013733
66.5006	0.00013733
66.7506	0.00013733
67.0006	0.00013733
67.2506	0.00013733
67.5006	0.00013733
67.7506	0.000133515
68.0006	0.000125886
68.2506	0.000125886
68.5006	0.000125886
68.7506	0.000122071
69.0006	0.000122071
69.2506	0.000118256
69.5006	0.000118256
69.7506	0.000110627
70.0006	0.000110627
70.2506	0.000114441
70.5006	0.000106812
70.7506	0.000106812
71.0006	0.000106812
71.2506	0.000106812
71.5006	0.000102997
71.7506	0.000102997
72.0006	9.54E-05
72.2483	9.54E-05
72.5006	9.16E-05
72.7506	9.16E-05
73.0006	8.77E-05
73.2506	8.77E-05
73.5006	9.16E-05
73.7506	8.77E-05
74.0006	8.39E-05
74.2506	8.01E-05
74.5006	8.01E-05
74.7506	7.63E-05
75.0006	7.63E-05
75.2506	7.63E-05
75.5006	7.63E-05
75.7485	7.25E-05
75.9986	6.49E-05
76.2506	6.87E-05
76.5006	6.87E-05
76.7506	6.87E-05
77.0006	6.49E-05
77.2506	6.10E-05
77.5006	6.10E-05
77.7506	5.34E-05
78.0006	5.34E-05
78.2506	5.72E-05
78.5006	5.34E-05
78.7506	4.96E-05
78.999	4.96E-05
79.2505	5.34E-05
79.5005	4.96E-05
79.7505	4.58E-05
80.0005	4.58E-05
80.2505	4.58E-05
80.5005	3.81E-05
80.7505	3.43E-05
81.0005	3.05E-05
81.2505	3.43E-05
81.5005	3.05E-05
81.7505	3.05E-05
82.0005	3.05E-05
82.2505	2.67E-05
82.5005	2.29E-05
82.7505	2.29E-05
83.0005	2.67E-05
83.2505	2.67E-05
83.5005	2.29E-05
83.7505	1.53E-05
84.0005	7.63E-06
84.2505	1.14E-05
84.5005	1.14E-05
84.7505	1.14E-05
85.0005	1.14E-05
85.2505	7.63E-06
85.5005	1.14E-05
85.7505	1.14E-05
86.0005	1.14E-05
86.2493	1.53E-05
86.5005	1.14E-05
86.7505	1.14E-05
87.0005	1.14E-05
87.2505	1.91E-05
87.5005	7.63E-06
87.7505	7.63E-06
88.0005	1.14E-05
88.2505	7.63E-06
88.5005	1.14E-05
88.7505	1.14E-05
89.0005	1.14E-05
89.2505	1.14E-05
89.5005	1.14E-05
89.7505	1.14E-05
90.0005	1.14E-05
90.2505	1.14E-05
90.5005	1.14E-05
90.7505	1.14E-05
91.0005	7.63E-06
91.2505	1.14E-05
91.5005	1.14E-05
91.7505	7.63E-06
92.0005	1.14E-05
92.2505	1.14E-05
92.5005	1.14E-05
92.7503	7.63E-06
93.0004	1.14E-05
93.2504	7.63E-06
93.5004	1.14E-05
93.7504	7.63E-06
94.0004	3.81E-06
94.2504	1.14E-05
94.5004	7.63E-06
94.7504	7.63E-06
95.0004	3.81E-06
95.2504	7.63E-06
95.5004	3.81E-06
95.7504	1.14E-05
96.0004	1.14E-05
96.2504	7.63E-06
96.5004	7.63E-06
96.7504	1.14E-05
97.0004	7.63E-06
97.2504	1.14E-05
97.5004	7.63E-06
97.7504	1.14E-05
98.0004	7.63E-06
98.2504	1.14E-05
98.5004	7.63E-06
98.7504	1.14E-05
99.0004	3.81E-06
99.2504	1.53E-05
99.5004	7.63E-06
99.7504	1.14E-05
100	1.14E-05
100.25	1.53E-05
100.5	1.14E-05
100.75	1.14E-05
101	1.14E-05
101.25	7.63E-06
101.5	1.14E-05
101.75	3.81E-06
102	3.81E-06
102.25	3.81E-06
102.5	3.81E-06
102.75	1.14E-05
103	3.81E-06
103.25	3.81E-06
103.5	1.14E-05
103.75	3.81E-06
104	0
104.25	7.63E-06
104.5	1.14E-05
104.75	3.81E-06
105	7.63E-06
105.25	3.81E-06
105.5	3.81E-06
105.75	3.81E-06
106	3.81E-06
106.25	7.63E-06
106.5	7.63E-06
106.75	7.63E-06
107	3.81E-06
107.25	7.63E-06
107.5	7.63E-06
107.75	7.63E-06
108	7.63E-06
108.25	3.81E-06
108.5	7.63E-06
108.75	7.63E-06
109	7.63E-06
109.25	1.14E-05
109.5	1.14E-05
109.75	1.14E-05
110	1.14E-05
110.25	1.14E-05
110.5	1.53E-05
110.75	1.14E-05
111	1.53E-05
111.25	2.29E-05
111.5	1.91E-05
111.75	2.29E-05
112	2.29E-05
112.25	1.91E-05
112.5	1.91E-05
112.75	2.29E-05
113	2.29E-05
113.25	2.29E-05
113.5	2.29E-05
113.75	2.29E-05
114	2.67E-05
114.25	2.29E-05
114.5	2.29E-05
114.75	2.67E-05
115	2.29E-05
115.25	2.67E-05
115.5	2.67E-05
115.75	3.05E-05
116	2.67E-05
116.25	2.67E-05
116.5	2.67E-05
116.75	2.67E-05
117	2.67E-05
117.25	3.05E-05
117.5	3.05E-05
117.75	2.67E-05
118	3.05E-05
118.25	3.05E-05
118.5	3.05E-05
118.75	3.05E-05
119	3.05E-05
119.25	3.05E-05
119.5	3.05E-05
119.75	3.05E-05
120	3.05E-05
120.25	3.43E-05
120.5	2.67E-05
120.75	2.29E-05
121	1.91E-05
121.25	2.29E-05
121.5	1.91E-05
121.75	1.91E-05
122	1.53E-05
122.25	1.14E-05
122.5	1.91E-05
122.75	1.53E-05
123	1.91E-05
123.25	1.91E-05
123.5	1.91E-05
123.75	2.29E-05
124	2.29E-05
124.25	1.91E-05
124.5	1.91E-05
124.75	1.91E-05
125	2.29E-05
125.25	1.91E-05
125.5	2.29E-05
125.75	2.29E-05
126	2.29E-05
126.25	2.29E-05
126.5	2.29E-05
126.75	2.29E-05
127	2.29E-05
127.25	2.67E-05
127.5	2.67E-05
127.75	2.29E-05
128	3.05E-05
128.25	2.67E-05
128.5	2.67E-05
128.75	2.67E-05
129	3.05E-05
129.25	3.05E-05
129.5	3.05E-05
129.75	3.05E-05
130	3.05E-05
130.25	2.67E-05
130.5	3.05E-05
130.75	3.05E-05
131	3.43E-05
131.25	3.43E-05
131.5	3.43E-05
131.75	3.43E-05
132	3.43E-05
132.25	3.81E-05
132.5	3.05E-05
132.75	3.05E-05
133	2.67E-05
133.25	3.05E-05
133.5	3.05E-05
133.75	3.05E-05
134	2.67E-05
134.248	3.05E-05
134.5	2.67E-05
134.75	3.43E-05
135	3.81E-05
135.25	3.81E-05
135.5	4.20E-05
135.75	4.58E-05
136	5.72E-05
136.25	5.34E-05
136.5	4.20E-05
136.75	2.67E-05
137	2.67E-05
137.25	2.67E-05
137.5	2.29E-05
137.75	2.29E-05
138	2.29E-05
138.25	2.29E-05
138.5	2.29E-05
138.75	2.29E-05
139	2.29E-05
139.25	2.29E-05
139.5	2.29E-05
139.75	2.29E-05
140	2.29E-05
140.25	2.29E-05
140.5	2.29E-05
140.75	2.29E-05
141	2.67E-05
141.25	2.67E-05
141.5	2.29E-05
141.75	2.67E-05
142	2.67E-05
142.25	2.67E-05
142.5	3.05E-05
142.75	2.29E-05
143	3.05E-05
143.25	2.67E-05
143.5	2.29E-05
143.75	2.67E-05
144	2.67E-05
144.25	2.29E-05
144.5	2.67E-05
144.75	2.67E-05
145	2.29E-05
145.25	2.29E-05
145.5	2.29E-05
145.75	2.29E-05
146	2.29E-05
146.25	2.29E-05
146.5	2.29E-05
146.75	2.29E-05
147	2.29E-05
147.25	2.29E-05
147.5	2.29E-05
147.75	2.67E-05
148	2.29E-05
148.25	2.67E-05
148.5	2.29E-05
148.75	2.29E-05
149	2.29E-05
149.25	2.29E-05
149.5	2.29E-05
149.75	2.29E-05
150	2.29E-05
150	2.29E-05
-33.9987	0.0004921
-33.7487	0.000484468
-33.4987	0.000476839
-33.2491	0.000473024
-32.9987	0.00046921
-32.7487	0.000457766
-32.4987	0.000446321
-32.2487	0.000442507
-31.9987	0.000438692
-31.7487	0.000438692
-31.4987	0.000438692
-31.2487	0.000434877
-30.9987	0.000431063
-30.7487	0.000427248
-30.4989	0.000423433
-30.2487	0.000419619
-29.9987	0.000419619
-29.7487	0.000419619
-29.4987	0.000415804
-29.2487	0.000408174
-28.9987	0.00040436
-28.7487	0.00040436
-28.4987	0.00040436
-28.2487	0.000400545
-27.9987	0.000400545
-27.7487	0.00040436
-27.4987	0.000400545
-27.2488	0.000400545
-26.9987	0.00039673
-26.7487	0.000400545
-26.4987	0.000392916
-26.2487	0.000389101
-25.9987	0.000392916
-25.7487	0.000389101
-25.4987	0.000389101
-25.2487	0.000392916
-24.9989	0.000392916
-24.7487	0.000392916
-24.4988	0.000392916
-24.2488	0.000392916
-23.9988	0.000392916
-23.7488	0.000392916
-23.4988	0.000392916
-23.2488	0.000392916
-22.9988	0.000392916
-22.7488	0.000392916
-22.4988	0.000392916
-22.2488	0.000392916
-21.9988	0.000392916
-21.7488	0.00039673
-21.4988	0.000392916
-21.2488	0.00039673
-20.9988	0.000392916
-20.7488	0.000392916
-20.4988	0.000392916
-20.2488	0.000392916
-19.9988	0.000392916
-19.7488	0.000392916
-19.4988	0.000392916
-19.2488	0.000392916
-18.9988	0.00039673
-18.7488	0.00039673
-18.4996	0.000392916
-18.2488	0.000400545
-17.9988	0.00039673
-17.7488	0.00039673
-17.4988	0.000400545
-17.2488	0.00039673
-16.9988	0.000392916
-16.7488	0.00039673
-16.4988	0.000392916
-16.2488	0.00039673
-15.9988	0.00039673
-15.7488	0.00039673
-15.4988	0.000392916
-15.2488	0.000400545
-14.9988	0.000392916
-14.7488	0.00039673
-14.4988	0.000400545
-14.2488	0.000400545
-13.9988	0.000400545
-13.7488	0.000400545
-13.5003	0.00039673
-13.2488	0.000400545
-12.9988	0.00039673
-12.7489	0.000400545
-12.4989	0.00039673
-12.2489	0.000392916
-11.9989	0.000392916
-11.7489	0.00039673
-11.4989	0.00039673
-11.2489	0.00039673
-10.999	0.000400545
-10.749	0.00039673
-10.499	0.000400545
-10.2493	0.000400545
-9.99887	0.000400545
-9.74887	0.00040436
-9.49887	0.00040436
-9.24889	0.000400545
-8.99887	0.000392916
-8.74889	0.00039673
-8.49889	0.00039673
-8.24889	0.000400545
-7.99889	0.00039673
-7.74889	0.00039673
-7.49889	0.000400545
-7.24889	0.00040436
-6.9989	0.000400545
-6.74889	0.00040436
-6.4989	0.00040436
-6.24902	0.00040436
-5.9998	0.000400545
-5.74939	0.000400545
-5.4989	0.000400545
-5.24892	0.000400545
-4.9989	0.000400545
-4.74892	0.00040436
-4.49892	0.000400545
-4.24892	0.00040436
-3.99892	0.00040436
-3.74892	0.000408174
-3.49893	0.000411989
-3.24892	0.000408174
-2.99927	0.000400545
-2.74892	0.00040436
-2.49893	0.00040436
-2.24893	0.00040436
-1.99893	0.00040436
-1.74893	0.000400545
-1.49893	0.00040436
-1.24895	0.000408174
-0.998932	0.000408174
-0.748947	0.000408174
-0.498947	0.000400545
-0.248947	0.00040436
0.00105286	0.000408174
0.251053	0.000408174
0.501038	0.000408174
0.751053	0.000408174
1.00104	0.000408174
1.25072	0.00040436
1.50104	0.000400545
1.75104	0.000400545
2.00104	0.00040436
2.25102	0.00040436
2.50104	0.000400545
2.75102	0.000400545
3.00104	0.00040436
3.25102	0.000400545
3.50102	0.00040436
3.75102	0.00040436
4.00102	0.00040436
4.25102	0.000400545
4.50101	0.000400545
4.75102	0.000400545
5.00101	0.00040436
5.25101	0.000400545
5.50101	0.00040436
5.75101	0.000400545
6.00101	0.000400545
6.25099	0.000400545
6.50101	0.000400545
6.75099	0.00040436
7.001	0.000400545
7.25099	0.000408174
7.501	0.000400545
7.75099	0.00040436
8.00098	0.00040436
8.25098	0.00040436
8.50098	0.000408174
8.75098	0.000408174
9.00098	0.000400545
9.25098	0.00039673
9.50098	0.000400545
9.75098	0.000392916
10.001	0.000392916
10.251	0.00039673
10.501	0.00039673
10.751	0.00039673
11.001	0.000400545
11.251	0.000400545
11.501	0.000400545
11.751	0.000400545
12.001	0.000400545
12.251	0.00039673
12.5009	0.000400545
12.751	0.000400545
13.0009	0.000400545
13.251	0.00039673
13.5009	0.00039673
13.7509	0.000400545
14.0009	0.00039673
14.2509	0.000392916
14.5009	0.00039673
14.7509	0.000392916
15.0009	0.000392916
15.2509	0.000392916
15.5009	0.000392916
15.7509	0.000392916
16.0009	0.000392916
16.2509	0.000392916
16.5009	0.000392916
16.7509	0.000392916
17.0009	0.000392916
17.2509	0.00039673
17.5009	0.000392916
17.7509	0.00039673
18.0009	0.000392916
18.2509	0.000392916
18.5009	0.000389101
18.7509	0.000385286
19.0009	0.000385286
19.2509	0.000385286
19.5009	0.000385286
19.7509	0.000385286
20.0009	0.000385286
20.2509	0.000392916
20.5009	0.000392916
20.7509	0.000389101
21.0009	0.000392916
21.2509	0.000389101
21.5009	0.000389101
21.7509	0.000392916
22.0009	0.000389101
22.2509	0.000385286
22.5009	0.000385286
22.7509	0.000385286
23.0009	0.000381472
23.2509	0.000385286
23.5009	0.000385286
23.7509	0.000385286
24.0009	0.000381472
24.2509	0.000385286
24.5009	0.000385286
24.7509	0.000381472
25.0009	0.000381472
25.2509	0.000377657
25.5008	0.000377657
25.7509	0.000377657
26.0008	0.000377657
26.2508	0.000373842
26.5008	0.000377657
26.7508	0.000381472
27.0008	0.000377657
27.2508	0.000381472
27.5008	0.000377657
27.7508	0.000377657
28.0008	0.000381472
28.2508	0.000373842
28.5008	0.000377657
28.7508	0.000370027
29.0008	0.000370027
29.2508	0.000366213
29.5008	0.000366213
29.7508	0.000370027
30.0008	0.000373842
30.2508	0.000370027
30.5008	0.000370027
30.7508	0.000370027
31.0008	0.000373842
31.2508	0.000370027
31.5008	0.000370027
31.7508	0.000370027
32.0008	0.000370027
32.2508	0.000370027
32.5008	0.000362398
32.7498	0.000366213
33.0008	0.000366213
33.2508	0.000366213
33.5008	0.000366213
33.7508	0.000366213
34.0008	0.000366213
34.2508	0.000362398
34.5008	0.000366213
34.7508	0.000362398
35.0008	0.000366213
35.2508	0.000362398
35.5008	0.000358583
35.7508	0.000354769
36.0008	0.000354769
36.2508	0.000354769
36.5008	0.000350954
36.7508	0.000354769
37	0.000343325
37.2497	0.000347139
37.5008	0.000343325
37.7508	0.000343325
38.0008	0.000343325
38.2508	0.000350954
38.5007	0.000347139
38.7508	0.000347139
39.0007	0.000347139
39.2507	0.000343325
39.5007	0.000347139
39.7507	0.000343325
40.0007	0.00033951
40.2507	0.00033951
40.5004	0.00033951
40.7504	0.00033951
41.0006	0.00033951
41.2507	0.000335695
41.5007	0.00033951
41.7507	0.000328066
42.0007	0.000331881
42.2507	0.000335695
42.5007	0.000335695
42.7507	0.00033951
43.0007	0.00033951
43.2507	0.00033951
43.5007	0.000331881
43.7507	0.000324251
44.0007	0.000320436
44.2507	0.000316622
44.5007	0.000316622
44.7507	0.000316622
44.9999	0.000316622
45.2498	0.000316622
45.5007	0.000312807
45.7507	0.000308992
46.0007	0.000305178
46.2507	0.000301363
46.5007	0.000297548
46.7507	0.000297548
47.0007	0.000293734
47.2507	0.000289919
47.5007	0.000289919
47.7507	0.000289919
48.0007	0.000289919
48.2507	0.000289919
48.5007	0.000289919
48.7507	0.000289919
49.0007	0.000286104
49.2507	0.000282289
49.5007	0.000278475
49.7507	0.000270845
50.0007	0.000267031
50.2507	0.000267031
50.5007	0.000263216
50.7507	0.000259401
51.0006	0.000263216
51.2506	0.000263216
51.5006	0.000263216
51.7506	0.000263216
52.0006	0.000259401
52.2506	0.000255587
52.5006	0.000251772
52.7506	0.000247957
53.0006	0.000247957
53.2506	0.000247957
53.5006	0.000240327
53.7506	0.000244142
54.0006	0.000240327
54.2506	0.000236512
54.4993	0.000240327
54.7506	0.000236512
55.0006	0.000236512
55.2506	0.000232697
55.5006	0.000228883
55.7506	0.000228883
56.0006	0.000228883
56.2506	0.000217439
56.5006	0.000217439
56.7506	0.000213624
57.0006	0.000209809
57.2506	0.000209809
57.5006	0.000209809
57.7506	0.000209809
58.0006	0.000213624
58.2506	0.000209809
58.5006	0.000209809
58.7506	0.000209809
59.0006	0.000209809
59.2506	0.00020218
59.5006	0.000205995
59.7506	0.00020218
60.0006	0.00019455
60.2506	0.00019455
60.5006	0.000190736
60.7506	0.000186921
61.0006	0.00019455
61.2506	0.000190736
61.5006	0.000190736
61.7506	0.000183106
62.0006	0.000186921
62.2506	0.000183106
62.5006	0.000179292
62.7506	0.000183106
63.0006	0.000175477
63.2506	0.000179292
63.5006	0.000175477
63.7506	0.000175477
64.0005	0.000167848
64.2505	0.000167848
64.5005	0.000167848
64.7505	0.000160218
65.0005	0.000156404
65.2505	0.000160218
65.5005	0.000156404
65.7505	0.000156404
66.0005	0.000156404
66.2505	0.000156404
66.5005	0.000156404
66.7505	0.000152589
67.0005	0.000152589
67.2505	0.000148774
67.5005	0.000152589
67.7505	0.000148774
68.0005	0.000141145
68.2505	0.00013733
68.5005	0.000129701
68.7505	0.000125886
69.0005	0.000129701
69.2505	0.000129701
69.5005	0.000129701
69.7505	0.000129701
70.0005	0.000129701
70.2505	0.000129701
70.5005	0.000129701
70.7505	0.000125886
71.0005	0.000125886
71.2505	0.000118256
71.5005	0.000110627
71.7505	0.000110627
72.0005	0.000114441
72.2505	0.000110627
72.5005	0.000106812
72.7505	0.000110627
73.0005	0.000106812
73.2505	0.000102997
73.5005	0.000102997
73.7505	0.000102997
74.0005	0.000102997
74.2505	9.92E-05
74.4999	9.92E-05
74.7505	9.16E-05
75.0005	9.16E-05
75.2505	9.16E-05
75.5005	8.77E-05
75.7505	8.01E-05
76.0005	8.01E-05
76.2505	8.01E-05
76.5005	8.39E-05
76.7505	8.39E-05
77.0002	8.01E-05
77.2504	7.63E-05
77.5005	7.63E-05
77.7504	7.25E-05
78.0004	7.25E-05
78.2504	6.87E-05
78.5004	6.87E-05
78.7504	6.49E-05
79.0004	6.49E-05
79.2504	6.10E-05
79.5004	5.34E-05
79.7504	5.34E-05
80.0004	5.34E-05
80.2504	5.34E-05
80.5004	5.72E-05
80.7504	5.72E-05
81.0004	5.34E-05
81.2504	4.96E-05
81.5004	4.96E-05
81.7504	4.58E-05
82.0004	4.20E-05
82.2504	4.58E-05
82.5004	3.81E-05
82.7504	3.43E-05
83.0004	3.81E-05
83.2504	3.05E-05
83.5004	3.05E-05
83.7504	3.05E-05
84.0004	2.67E-05
84.2504	2.67E-05
84.5004	2.29E-05
84.7504	1.14E-05
85.0002	1.14E-05
85.2504	7.63E-06
85.5004	7.63E-06
85.7504	7.63E-06
86.0004	7.63E-06
86.2504	3.81E-06
86.5004	1.14E-05
86.75	3.81E-06
87.0004	7.63E-06
87.2504	0
87.5004	1.14E-05
87.7504	7.63E-06
88.0004	3.81E-06
88.2504	3.81E-06
88.5004	3.81E-06
88.7504	0
89.0004	3.81E-06
89.2504	0
89.5004	0
89.7504	3.81E-06
90.0004	0
90.2503	0
90.5003	0
90.7503	3.81E-06
91.0003	7.63E-06
91.2503	3.81E-06
91.5003	0
91.7503	3.81E-06
92.0003	3.81E-06
92.2503	3.81E-06
92.5003	3.81E-06
92.7503	3.81E-06
93.0003	3.81E-06
93.2503	3.81E-06
93.5003	3.81E-06
93.7503	7.63E-06
94.0003	3.81E-06
94.2503	3.81E-06
94.5003	7.63E-06
94.7503	3.81E-06
95.0003	3.81E-06
95.2503	3.81E-06
95.5003	7.63E-06
95.7503	3.81E-06
96.0003	7.63E-06
96.2503	7.63E-06
96.5003	7.63E-06
96.7503	7.63E-06
97.0003	1.14E-05
97.2503	7.63E-06
97.5003	7.63E-06
97.7503	1.14E-05
98.0003	1.14E-05
98.2503	1.14E-05
98.5003	1.14E-05
98.7503	7.63E-06
99.0003	7.63E-06
99.2503	1.14E-05
99.5003	1.53E-05
99.7503	1.53E-05
100	1.53E-05
100.25	1.14E-05
100.5	1.14E-05
100.75	1.53E-05
101	1.14E-05
101.25	1.14E-05
101.5	1.53E-05
101.75	1.14E-05
102	1.53E-05
102.25	1.91E-05
102.5	1.53E-05
102.75	1.53E-05
103	1.53E-05
103.25	1.14E-05
103.5	1.91E-05
103.75	1.53E-05
104	2.29E-05
104.25	1.91E-05
104.5	2.29E-05
104.75	2.29E-05
105	1.91E-05
105.25	1.91E-05
105.5	2.29E-05
105.75	2.29E-05
106	2.67E-05
106.25	2.29E-05
106.5	2.29E-05
106.75	2.29E-05
107	2.29E-05
107.25	2.29E-05
107.5	3.05E-05
107.75	2.29E-05
108	2.67E-05
108.25	3.05E-05
108.5	3.43E-05
108.75	3.05E-05
109	3.43E-05
109.25	3.81E-05
109.5	3.81E-05
109.75	4.20E-05
110	4.58E-05
110.25	4.96E-05
110.5	4.58E-05
110.75	4.58E-05
111	4.58E-05
111.25	4.58E-05
111.5	4.58E-05
111.75	4.96E-05
112	4.96E-05
112.25	4.96E-05
112.5	4.20E-05
112.75	2.67E-05
113	2.29E-05
113.25	1.53E-05
113.5	1.91E-05
113.75	2.29E-05
114	2.29E-05
114.25	2.29E-05
114.5	2.29E-05
114.75	1.91E-05
115	2.29E-05
115.25	1.91E-05
115.5	2.29E-05
115.75	2.29E-05
116	2.29E-05
116.25	2.29E-05
116.5	2.29E-05
116.75	2.29E-05
117	2.29E-05
117.25	2.29E-05
117.5	2.29E-05
117.75	1.91E-05
118	1.91E-05
118.25	1.91E-05
118.5	1.53E-05
118.75	1.91E-05
119	1.91E-05
119.25	1.53E-05
119.5	2.29E-05
119.75	2.29E-05
120	2.29E-05
120.25	2.29E-05
120.5	2.67E-05
120.75	3.05E-05
121	4.96E-05
121.25	5.34E-05
121.5	4.96E-05
121.749	4.20E-05
122	4.96E-05
122.25	5.34E-05
122.5	5.34E-05
122.75	4.96E-05
123	4.96E-05
123.25	4.96E-05
123.5	4.20E-05
123.75	4.20E-05
124	4.20E-05
124.25	3.43E-05
124.5	2.29E-05
124.75	1.91E-05
125	1.91E-05
125.25	1.53E-05
125.5	1.53E-05
125.75	1.14E-05
126	1.14E-05
126.25	1.53E-05
126.5	1.14E-05
126.75	1.53E-05
127	1.53E-05
127.25	1.53E-05
127.5	1.53E-05
127.75	1.91E-05
128	1.91E-05
128.25	1.53E-05
128.5	1.53E-05
128.749	1.53E-05
129	1.53E-05
129.25	1.91E-05
129.5	1.53E-05
129.75	1.53E-05
130	1.91E-05
130.25	1.14E-05
130.5	1.14E-05
130.75	1.53E-05
131	1.53E-05
131.25	1.14E-05
131.5	7.63E-06
131.75	1.14E-05
132	1.14E-05
132.25	1.53E-05
132.5	1.14E-05
132.75	1.14E-05
133	1.14E-05
133.25	7.63E-06
133.5	7.63E-06
133.75	7.63E-06
134	1.53E-05
134.25	1.14E-05
134.5	1.14E-05
134.75	1.14E-05
135	1.53E-05
135	1.14E-05
-48.9987	0.000408174
-48.7487	0.00039673
-48.4987	0.000392916
-48.2487	0.000392916
-47.9987	0.000385286
-47.7487	0.000381472
-47.4987	0.000373842
-47.2487	0.000366213
-46.9987	0.000362398
-46.7487	0.000362398
-46.4987	0.000358583
-46.2487	0.000350954
-45.9987	0.000354769
-45.7487	0.000347139
-45.4988	0.000347139
-45.2496	0.000343325
-44.9993	0.00033951
-44.7491	0.00033951
-44.4996	0.00033951
-44.2511	0.000335695
-43.9987	0.000331881
-43.7487	0.000331881
-43.4987	0.000331881
-43.2487	0.000328066
-42.9987	0.000331881
-42.7487	0.000331881
-42.4987	0.000331881
-42.2487	0.000331881
-41.9987	0.000324251
-41.7487	0.000324251
-41.4987	0.000324251
-41.2487	0.000324251
-40.9987	0.000324251
-40.7494	0.000320436
-40.4987	0.000324251
-40.2487	0.000324251
-39.9988	0.000316622
-39.7487	0.000316622
-39.4988	0.000324251
-39.2488	0.000324251
-38.9988	0.000324251
-38.7488	0.000328066
-38.4988	0.000324251
-38.2488	0.000324251
-37.9988	0.000328066
-37.7488	0.000331881
-37.4988	0.000328066
-37.2488	0.000328066
-36.9988	0.000328066
-36.7488	0.000331881
-36.4988	0.000331881
-36.2488	0.000331881
-35.9988	0.000331881
-35.7488	0.000331881
-35.4988	0.000331881
-35.2488	0.000331881
-34.9988	0.000328066
-34.7488	0.000331881
-34.4988	0.000331881
-34.2488	0.000331881
-33.9988	0.000331881
-33.7488	0.000335695
-33.4988	0.000335695
-33.2488	0.00033951
-32.9988	0.00033951
-32.7488	0.00033951
-32.4988	0.00033951
-32.2488	0.00033951
-31.9988	0.00033951
-31.7488	0.000335695
-31.4988	0.00033951
-31.2488	0.00033951
-30.9988	0.00033951
-30.7488	0.000343325
-30.4988	0.000343325
-30.2488	0.000343325
-29.9988	0.000343325
-29.7488	0.000347139
-29.4988	0.000347139
-29.2489	0.000343325
-28.9988	0.000347139
-28.7488	0.000350954
-28.499	0.000347139
-28.2489	0.000347139
-27.9993	0.000350954
-27.7491	0.000350954
-27.4989	0.000343325
-27.2489	0.000347139
-26.9992	0.000350954
-26.7489	0.000350954
-26.4991	0.000354769
-26.25	0.000354769
-26	0.000350954
-25.75	0.000354769
-25.4997	0.000358583
-25.2489	0.000354769
-24.9989	0.000354769
-24.7489	0.000354769
-24.4989	0.000358583
-24.2489	0.000358583
-23.9989	0.000358583
-23.7489	0.000358583
-23.4989	0.000350954
-23.2489	0.000358583
-22.9989	0.000362398
-22.7489	0.000362398
-22.4989	0.000358583
-22.2489	0.000366213
-21.9989	0.000366213
-21.7489	0.000366213
-21.4989	0.000366213
-21.2489	0.000366213
-20.9989	0.000366213
-20.7489	0.000362398
-20.4989	0.000366213
-20.2489	0.000362398
-19.9989	0.000366213
-19.7489	0.000366213
-19.4989	0.000366213
-19.2489	0.000370027
-18.9989	0.000366213
-18.7489	0.000370027
-18.4989	0.000370027
-18.2489	0.000370027
-17.9989	0.000373842
-17.7489	0.000366213
-17.4989	0.000366213
-17.2489	0.000366213
-16.9989	0.000370027
-16.7489	0.000373842
-16.4989	0.000373842
-16.2489	0.000373842
-15.9989	0.000377657
-15.7489	0.000373842
-15.4989	0.000377657
-15.2489	0.000373842
-14.9989	0.000377657
-14.7489	0.000373842
-14.499	0.000377657
-14.2489	0.000381472
-13.999	0.000373842
-13.749	0.000373842
-13.499	0.000373842
-13.249	0.000373842
-12.999	0.000373842
-12.749	0.000373842
-12.499	0.000373842
-12.249	0.000373842
-11.999	0.000377657
-11.749	0.000381472
-11.499	0.000381472
-11.249	0.000385286
-10.999	0.000385286
-10.749	0.000381472
-10.499	0.000381472
-10.249	0.000377657
-9.99899	0.000381472
-9.74899	0.000385286
-9.49899	0.000381472
-9.24899	0.000385286
-8.99899	0.000385286
-8.74901	0.000389101
-8.49899	0.000389101
-8.24901	0.000389101
-7.999	0.000385286
-7.74901	0.000385286
-7.499	0.000389101
-7.24901	0.000392916
-6.99902	0.000392916
-6.74902	0.000389101
-6.49902	0.000389101
-6.24902	0.000389101
-5.99902	0.000392916
-5.74902	0.000389101
-5.49902	0.000385286
-5.24902	0.000389101
-4.99902	0.000385286
-4.74903	0.000389101
-4.49903	0.000392916
-4.24904	0.000392916
-3.99903	0.000392916
-3.74904	0.000392916
-3.5004	0.000392916
-3.24904	0.000392916
-2.99904	0.000392916
-2.74905	0.000392916
-2.49905	0.000392916
-2.24905	0.00039673
-1.99905	0.000392916
-1.74905	0.000392916
-1.49905	0.000392916
-1.24905	0.00039673
-0.999062	0.000392916
-0.749062	0.00039673
-0.499062	0.000392916
-0.249069	0.000392916
0.000938416	0.000392916
0.250931	0.000392916
0.500931	0.000392916
0.750923	0.000392916
1.00093	0.000392916
1.25092	0.000392916
1.50092	0.00039673
1.75092	0.00039673
2.00092	0.00039673
2.25092	0.00039673
2.50092	0.00039673
2.75088	0.00039673
3.00091	0.00039673
3.25092	0.000392916
3.50091	0.000392916
3.7509	0.000392916
4.00091	0.000392916
4.2509	0.000392916
4.5009	0.000392916
4.75089	0.000392916
5.0009	0.00039673
5.25089	0.000392916
5.50089	0.00039673
5.75089	0.00039673
6.00089	0.00039673
6.25089	0.00039673
6.50088	0.000392916
6.75089	0.000400545
7.00088	0.000392916
7.25089	0.00039673
7.50088	0.000392916
7.75087	0.000392916
8.00087	0.000392916
8.25087	0.00039673
8.50087	0.000392916
8.75086	0.00039673
9.00087	0.00039673
9.25086	0.000392916
9.50086	0.000392916
9.75086	0.000392916
10.0007	0.000392916
10.2504	0.000392916
10.5008	0.000392916
10.7509	0.000392916
11.0008	0.000392916
11.2508	0.000389101
11.5008	0.000392916
11.7508	0.000392916
12.0008	0.000392916
12.2508	0.000392916
12.5008	0.000392916
12.7508	0.000392916
13.0008	0.000389101
13.2508	0.000389101
13.5008	0.000389101
13.7508	0.000385286
14.0008	0.000389101
14.2508	0.000385286
14.5008	0.000385286
14.7508	0.000392916
15.0008	0.000385286
15.2508	0.000385286
15.5008	0.000392916
15.7508	0.000389101
16.0008	0.000389101
16.2508	0.000389101
16.5008	0.000385286
16.7508	0.000385286
17.0008	0.000385286
17.2505	0.000385286
17.4991	0.000385286
17.7508	0.000377657
18.0008	0.000385286
18.2508	0.000381472
18.5008	0.000381472
18.7508	0.000381472
19.0008	0.000381472
19.2508	0.000381472
19.5008	0.000381472
19.7508	0.000381472
20.0008	0.000381472
20.2508	0.000377657
20.5008	0.000370027
20.7508	0.000373842
21.0008	0.000370027
21.2508	0.000370027
21.5008	0.000366213
21.7508	0.000370027
22.0008	0.000370027
22.2508	0.000370027
22.5008	0.000370027
22.7508	0.000370027
23.0008	0.000366213
23.2508	0.000373842
23.5007	0.000370027
23.7508	0.000370027
24.0007	0.000370027
24.2507	0.000366213
24.5007	0.000370027
24.7507	0.000366213
25.0007	0.000370027
25.25	0.000366213
25.5003	0.000362398
25.7494	0.000366213
26.0007	0.000366213
26.2507	0.000362398
26.5007	0.000366213
26.7507	0.000366213
27.0007	0.000366213
27.2507	0.000366213
27.5007	0.000366213
27.7507	0.000366213
28.0007	0.000358583
28.2507	0.000362398
28.5007	0.000358583
28.7507	0.000358583
29.0007	0.000354769
29.2507	0.000354769
29.5007	0.000354769
29.7507	0.000354769
30.0007	0.000350954
30.2507	0.000347139
30.5007	0.000343325
30.7507	0.000343325
31.0007	0.000343325
31.2507	0.000347139
31.5007	0.00033951
31.7507	0.00033951
32.0007	0.00033951
32.2507	0.00033951
32.5004	0.00033951
32.7504	0.00033951
33.0005	0.00033951
33.2501	0.00033951
33.4999	0.00033951
33.7497	0.000335695
33.9993	0.000331881
34.2495	0.000331881
34.4999	0.000331881
34.7507	0.000335695
35.0007	0.000324251
35.2507	0.000324251
35.5007	0.000324251
35.7507	0.000324251
36.0006	0.000324251
36.2506	0.000324251
36.5006	0.000320436
36.7506	0.000324251
37.0006	0.000324251
37.2506	0.000316622
37.5006	0.000320436
37.7506	0.000320436
38.0006	0.000316622
38.2506	0.000316622
38.5006	0.000316622
38.7506	0.000316622
39.0006	0.000316622
39.2506	0.000312807
39.5006	0.000312807
39.7506	0.000316622
40.0006	0.000316622
40.2506	0.000312807
40.5006	0.000312807
40.7506	0.000308992
41.0006	0.000308992
41.2506	0.000305178
41.5006	0.000301363
41.7506	0.000297548
42.0006	0.000301363
42.2506	0.000301363
42.5006	0.000305178
42.7506	0.000301363
43.0006	0.000297548
43.2506	0.000305178
43.5006	0.000297548
43.7506	0.000297548
44.0006	0.000293734
44.2506	0.000293734
44.5006	0.000289919
44.7506	0.000293734
45.0006	0.000289919
45.2506	0.000289919
45.5006	0.000289919
45.7506	0.000289919
46.0006	0.000289919
46.2506	0.000289919
46.5006	0.000289919
46.7506	0.000289919
47.0006	0.000282289
47.2506	0.000282289
47.5006	0.000282289
47.7506	0.000282289
48.0006	0.000282289
48.2506	0.000278475
48.5006	0.00027466
48.7506	0.00027466
49.0005	0.00027466
49.2505	0.000267031
49.5005	0.000267031
49.7505	0.000263216
50.0004	0.000263216
50.2505	0.000263216
50.5005	0.000263216
50.7505	0.000267031
51.0005	0.000263216
51.2505	0.000263216
51.5005	0.000263216
51.7505	0.000259401
52.0005	0.000263216
52.2505	0.000263216
52.5005	0.000251772
52.7505	0.000251772
53.0005	0.000251772
53.2505	0.000247957
53.5005	0.000244142
53.7505	0.000244142
54.0005	0.000247957
54.2505	0.000247957
54.5004	0.000247957
54.7501	0.000247957
55.0005	0.000247957
55.2505	0.000240327
55.5005	0.000240327
55.7505	0.000240327
56.0005	0.000244142
56.2505	0.000240327
56.5005	0.000240327
56.7505	0.000240327
57.0005	0.000240327
57.2505	0.000236512
57.5005	0.000236512
57.7505	0.000240327
58.0005	0.000236512
58.2505	0.000240327
58.5005	0.000240327
58.7505	0.000240327
59.0005	0.000236512
59.2505	0.000236512
59.5005	0.000236512
59.7505	0.000236512
60.0005	0.000236512
60.2505	0.000236512
60.5005	0.000236512
60.7505	0.000236512
61.0005	0.000236512
61.2505	0.000240327
61.5005	0.000236512
61.7505	0.000236512
62.0005	0.000240327
62.2505	0.000236512
62.5005	0.000240327
62.7504	0.000240327
63.0004	0.000240327
63.2504	0.000247957
63.5004	0.000251772
63.7504	0.000244142
64.0004	0.000244142
64.2504	0.000236512
64.5004	0.000240327
64.7504	0.000240327
65.0004	0.000244142
65.2504	0.000251772
65.5004	0.000247957
65.7504	0.000244142
66.0004	0.000240327
66.2504	0.000240327
66.5004	0.000236512
66.7504	0.000240327
67.0004	0.000244142
67.2504	0.000244142
67.5004	0.000240327
67.7499	0.000240327
68.0004	0.000240327
68.2504	0.000244142
68.5004	0.000244142
68.7504	0.000255587
69.0004	0.000251772
69.2504	0.000255587
69.5004	0.000247957
69.7504	0.000244142
70.0004	0.000251772
70.2504	0.000244142
70.5004	0.000240327
70.7504	0.000236512
71.0004	0.000236512
71.2504	0.000240327
71.5004	0.000244142
71.7504	0.000244142
72.0004	0.000240327
72.2504	0.000240327
72.5004	0.000236512
72.7504	0.000232697
73.0004	0.000240327
73.2504	0.000240327
73.5004	0.000236512
73.7504	0.000228883
74.0004	0.000225068
74.2504	0.000232697
74.5004	0.000228883
74.7504	0.000225068
75.0004	0.000225068
75.2503	0.000217439
75.5003	0.000209809
75.7503	0.000217439
76.0003	0.000209809
76.2503	0.000209809
76.5003	0.000205995
76.7503	0.000205995
77.0003	0.000209809
77.2503	0.000209809
77.5003	0.00020218
77.7503	0.00019455
78.0003	0.000186921
78.2503	0.000190736
78.5003	0.000186921
78.7503	0.000183106
79.0003	0.000183106
79.2503	0.000186921
79.5003	0.000183106
79.7503	0.000175477
80.0003	0.000160218
80.2503	0.000156404
80.5003	0.000156404
80.7503	0.000156404
81.0003	0.000156404
81.2503	0.000156404
81.5003	0.000152589
81.7503	0.000148774
82.0003	0.000148774
82.2503	0.000141145
82.5003	0.000133515
82.7503	0.000129701
83.0003	0.000129701
83.2503	0.000129701
83.5003	0.000129701
83.7503	0.000122071
84.0003	0.000118256
84.2503	0.000106812
84.5003	8.77E-05
84.7503	5.34E-05
85.0003	3.05E-05
85.2503	2.29E-05
85.5003	1.91E-05
85.7503	1.91E-05
86.0003	1.53E-05
86.2503	1.53E-05
86.5003	1.14E-05
86.7503	1.53E-05
87.0003	1.53E-05
87.2503	1.14E-05
87.5003	1.14E-05
87.7503	1.53E-05
87.9993	1.14E-05
88.2502	1.14E-05
88.4991	1.53E-05
88.7487	1.53E-05
89.0002	1.91E-05
89.2502	1.91E-05
89.5002	2.29E-05
89.7502	1.91E-05
90.0002	1.53E-05
90.2502	2.29E-05
90.5002	2.29E-05
90.7502	1.91E-05
91	2.29E-05
91.2502	2.29E-05
91.5002	1.91E-05
91.7502	2.29E-05
91.9995	2.29E-05
92.25	1.91E-05
92.4993	2.29E-05
92.7493	2.29E-05
92.9996	2.29E-05
93.2502	2.67E-05
93.5002	2.67E-05
93.7502	2.29E-05
94.0002	2.67E-05
94.2502	2.67E-05
94.5002	3.05E-05
94.7502	2.67E-05
95.0002	4.20E-05
95.2502	4.20E-05
95.5002	4.20E-05
95.7502	3.81E-05
96.0002	4.20E-05
96.2502	3.81E-05
96.5002	4.20E-05
96.7502	4.96E-05
97.0002	4.58E-05
97.2497	4.96E-05
97.5002	4.96E-05
97.7502	4.96E-05
98.0002	4.58E-05
98.2502	4.96E-05
98.5002	5.34E-05
98.7502	5.72E-05
99.0002	6.10E-05
99.2502	6.87E-05
99.5002	6.87E-05
99.7502	6.87E-05
100	7.63E-05
100.25	7.25E-05
100.5	7.63E-05
100.75	7.63E-05
101	8.39E-05
101.25	8.39E-05
101.5	8.01E-05
101.75	8.39E-05
102	8.77E-05
102.25	9.54E-05
102.5	9.54E-05
102.75	8.77E-05
103	9.16E-05
103.25	9.54E-05
103.5	9.92E-05
103.75	9.54E-05
104	9.16E-05
104.25	6.87E-05
104.5	4.58E-05
104.75	2.29E-05
105	1.91E-05
105.25	1.14E-05
105.5	2.29E-05
105.75	2.67E-05
106	3.05E-05
106.25	3.43E-05
106.5	3.05E-05
106.75	3.05E-05
107	3.05E-05
107.25	4.20E-05
107.5	3.81E-05
107.749	4.20E-05
107.999	3.43E-05
108.25	3.81E-05
108.5	3.43E-05
108.75	3.05E-05
109	2.67E-05
109.25	2.67E-05
109.5	2.67E-05
109.75	3.05E-05
110	3.05E-05
110.25	2.67E-05
110.5	2.67E-05
110.75	3.81E-05
111	4.20E-05
111.25	4.20E-05
111.5	4.20E-05
111.75	4.58E-05
112	4.96E-05
112.25	4.96E-05
112.5	3.81E-05
112.749	1.91E-05
113	1.14E-05
113.248	3.81E-06
113.499	1.14E-05
113.75	7.63E-06
114	3.81E-06
114.25	7.63E-06
114.5	1.14E-05
114.75	1.14E-05
115	1.14E-05
115.25	1.14E-05
115.5	1.14E-05
115.75	7.63E-06
116	1.14E-05
116.25	1.14E-05
116.5	1.14E-05
116.75	7.63E-06
117	7.63E-06
117.25	1.14E-05
117.5	1.14E-05
117.75	7.63E-06
118	1.14E-05
118.25	1.14E-05
118.5	1.14E-05
118.75	1.14E-05
119	7.63E-06
119.25	1.14E-05
119.5	3.81E-06
119.75	1.14E-05
120	1.14E-05
120	1.14E-05
-63.9987	0.000305178
-63.7487	0.000301363
-63.4987	0.000293734
-63.2487	0.000289919
-62.9987	0.000282289
-62.7494	0.00027466
-62.4995	0.000270845
-62.2495	0.000263216
-61.9987	0.000259401
-61.7487	0.000263216
-61.4987	0.000263216
-61.2487	0.000255587
-60.9987	0.000251772
-60.7487	0.000244142
-60.4987	0.000244142
-60.2487	0.000244142
-59.9987	0.000244142
-59.7487	0.000236512
-59.4987	0.000236512
-59.2487	0.000236512
-58.9987	0.000236512
-58.7487	0.000236512
-58.4987	0.000236512
-58.2487	0.000236512
-57.9987	0.000236512
-57.7487	0.000236512
-57.4987	0.000236512
-57.2487	0.000232697
-56.9987	0.000236512
-56.7487	0.000236512
-56.4987	0.000232697
-56.2487	0.000228883
-55.9987	0.000232697
-55.7487	0.000236512
-55.4987	0.000232697
-55.2487	0.000232697
-54.9988	0.000228883
-54.7487	0.000232697
-54.4988	0.000228883
-54.2488	0.000236512
-53.9988	0.000236512
-53.7488	0.000236512
-53.4988	0.000240327
-53.2488	0.000236512
-52.9988	0.000236512
-52.7488	0.000236512
-52.4988	0.000236512
-52.2488	0.000236512
-51.9988	0.000236512
-51.7488	0.000240327
-51.4988	0.000240327
-51.2488	0.000240327
-50.9988	0.000236512
-50.7488	0.000236512
-50.4988	0.000244142
-50.2488	0.000240327
-49.9991	0.000240327
-49.7488	0.000240327
-49.4988	0.000244142
-49.2488	0.000251772
-48.9988	0.000251772
-48.7488	0.000247957
-48.4988	0.000247957
-48.2488	0.000251772
-47.9988	0.000251772
-47.7488	0.000251772
-47.4988	0.000251772
-47.2488	0.000247957
-46.9988	0.000247957
-46.7488	0.000251772
-46.4988	0.000255587
-46.2488	0.000251772
-45.9988	0.000259401
-45.7488	0.000259401
-45.4988	0.000255587
-45.2488	0.000259401
-44.9988	0.000259401
-44.7497	0.000263216
-44.5001	0.000259401
-44.2488	0.000259401
-44.0004	0.000263216
-43.751	0.000263216
-43.4988	0.000263216
-43.2488	0.000263216
-42.9988	0.000263216
-42.7489	0.000263216
-42.4989	0.000267031
-42.2489	0.000263216
-41.999	0.000263216
-41.7489	0.000267031
-41.4989	0.000270845
-41.2489	0.00027466
-40.9989	0.00027466
-40.7489	0.00027466
-40.4989	0.000270845
-40.2489	0.00027466
-39.9989	0.000270845
-39.7489	0.00027466
-39.4989	0.000278475
-39.2489	0.000278475
-38.9989	0.000278475
-38.7489	0.000282289
-38.4989	0.000278475
-38.2489	0.000282289
-37.9989	0.000282289
-37.7489	0.000289919
-37.4989	0.000286104
-37.2489	0.000286104
-36.9989	0.000286104
-36.7489	0.000293734
-36.4989	0.000289919
-36.2489	0.000289919
-35.9989	0.000289919
-35.7489	0.000289919
-35.4989	0.000289919
-35.2489	0.000293734
-34.9989	0.000293734
-34.7489	0.000297548
-34.4989	0.000293734
-34.2489	0.000297548
-33.9989	0.000293734
-33.7489	0.000297548
-33.4989	0.000301363
-33.2489	0.000301363
-32.9989	0.000301363
-32.7489	0.000301363
-32.4989	0.000297548
-32.2489	0.000301363
-31.9989	0.000305178
-31.7489	0.000305178
-31.4989	0.000305178
-31.2489	0.000308992
-30.9989	0.000316622
-30.7489	0.000308992
-30.4989	0.000308992
-30.2489	0.000312807
-29.9989	0.000316622
-29.7489	0.000316622
-29.499	0.000312807
-29.2489	0.000316622
-28.999	0.000316622
-28.749	0.000316622
-28.499	0.000316622
-28.249	0.000316622
-27.999	0.000316622
-27.749	0.000316622
-27.499	0.000316622
-27.249	0.000316622
-26.999	0.000316622
-26.749	0.000316622
-26.499	0.000316622
-26.249	0.000320436
-25.999	0.000316622
-25.749	0.000320436
-25.499	0.000320436
-25.249	0.000320436
-24.999	0.000324251
-24.749	0.000328066
-24.499	0.000328066
-24.249	0.000328066
-23.999	0.000331881
-23.749	0.000324251
-23.499	0.000328066
-23.249	0.000331881
-22.999	0.000335695
-22.749	0.000331881
-22.499	0.000328066
-22.249	0.000328066
-21.999	0.000335695
-21.749	0.000331881
-21.499	0.000335695
-21.2491	0.000331881
-20.999	0.00033951
-20.749	0.000335695
-20.499	0.00033951
-20.249	0.000335695
-19.999	0.00033951
-19.749	0.000335695
-19.499	0.00033951
-19.249	0.00033951
-18.999	0.000335695
-18.749	0.00033951
-18.499	0.000343325
-18.249	0.00033951
-17.999	0.00033951
-17.749	0.00033951
-17.4991	0.00033951
-17.249	0.000343325
-16.9991	0.00033951
-16.749	0.00033951
-16.4991	0.00033951
-16.2491	0.000347139
-15.9991	0.00033951
-15.7491	0.000343325
-15.4991	0.00033951
-15.2491	0.000343325
-14.9991	0.000347139
-14.7491	0.000347139
-14.4991	0.000347139
-14.2491	0.000354769
-13.9991	0.000350954
-13.7491	0.000347139
-13.4991	0.000354769
-13.2491	0.000354769
-12.9991	0.000347139
-12.7491	0.000347139
-12.4991	0.000350954
-12.2491	0.000350954
-11.9991	0.000354769
-11.7491	0.000354769
-11.4991	0.000354769
-11.2491	0.000358583
-10.9991	0.000354769
-10.7491	0.000358583
-10.5006	0.000358583
-10.2491	0.000354769
-9.9991	0.000354769
-9.74911	0.000358583
-9.49911	0.000358583
-9.24911	0.000362398
-8.99911	0.000358583
-8.74911	0.000358583
-8.49912	0.000358583
-8.24911	0.000362398
-7.99912	0.000362398
-7.74966	0.000358583
-7.49952	0.000358583
-7.24924	0.000362398
-6.99916	0.000358583
-6.75034	0.000358583
-6.49913	0.000366213
-6.24914	0.000358583
-5.99913	0.000362398
-5.74914	0.000362398
-5.49914	0.000362398
-5.24914	0.000362398
-4.99915	0.000366213
-4.74915	0.000362398
-4.49915	0.000362398
-4.24915	0.000362398
-3.99915	0.000362398
-3.74915	0.000366213
-3.49929	0.000366213
-3.24916	0.000362398
-2.99916	0.000358583
-2.74917	0.000366213
-2.49916	0.000366213
-2.24917	0.000366213
-1.99916	0.000366213
-1.74917	0.000362398
-1.49917	0.000366213
-1.24918	0.000366213
-0.999176	0.000366213
-0.749176	0.000366213
-0.499184	0.000370027
-0.249176	0.000366213
0.000816345	0.000366213
0.250816	0.000366213
0.500809	0.000366213
0.750816	0.000362398
1.00081	0.000366213
1.2508	0.000366213
1.50081	0.000366213
1.7508	0.000366213
2.0008	0.000366213
2.2508	0.000366213
2.5008	0.000366213
2.75079	0.000366213
3.00079	0.000358583
3.25079	0.000366213
3.50079	0.000366213
3.75079	0.000366213
4.00079	0.000366213
4.25079	0.000362398
4.50078	0.000362398
4.75079	0.000362398
5.00078	0.000366213
5.25077	0.000362398
5.49947	0.000362398
5.75077	0.000362398
5.99963	0.000362398
6.25049	0.000362398
6.49888	0.000358583
6.75076	0.000362398
7.00077	0.000362398
7.25076	0.000358583
7.50076	0.000366213
7.75076	0.000366213
8.00076	0.000362398
8.25076	0.000362398
8.50075	0.000362398
8.75076	0.000366213
9.00075	0.000358583
9.25074	0.000362398
9.50075	0.000362398
9.75074	0.000362398
10.0007	0.000366213
10.2507	0.000358583
10.5007	0.000362398
10.7499	0.000362398
11.0007	0.000362398
11.2507	0.000358583
11.5007	0.000362398
11.7507	0.000362398
12.0007	0.000358583
12.2507	0.000362398
12.5007	0.000362398
12.7507	0.000362398
13.0005	0.000358583
13.2507	0.000358583
13.5007	0.000358583
13.7507	0.000358583
14.0007	0.000358583
14.2507	0.000358583
14.5007	0.000354769
14.7507	0.000354769
15.0007	0.000350954
15.2503	0.000354769
15.5007	0.000350954
15.7507	0.000350954
16.0007	0.000350954
16.2507	0.000350954
16.5007	0.000354769
16.7507	0.000354769
17.0007	0.000350954
17.2507	0.000347139
17.5004	0.000343325
17.7507	0.000350954
18.0007	0.000343325
18.2507	0.000343325
18.5007	0.000350954
18.7507	0.000347139
19.0007	0.00033951
19.2507	0.000347139
19.5007	0.000350954
19.7507	0.000343325
20.0007	0.000343325
20.2507	0.000343325
20.5007	0.000347139
20.7507	0.000343325
21.0006	0.00033951
21.2506	0.000343325
21.5006	0.000343325
21.7506	0.00033951
22.0006	0.00033951
22.2506	0.00033951
22.5006	0.00033951
22.7506	0.00033951
23.0006	0.00033951
23.2506	0.00033951
23.5006	0.00033951
23.7506	0.00033951
24.0006	0.00033951
24.2506	0.00033951
24.5006	0.00033951
24.7506	0.00033951
25.0006	0.00033951
25.2506	0.00033951
25.5006	0.00033951
25.7506	0.00033951
26.0006	0.000335695
26.2506	0.000335695
26.5006	0.00033951
26.7506	0.000331881
27.0006	0.00033951
27.2506	0.000335695
27.5006	0.000331881
27.7506	0.000335695
28.0006	0.000335695
28.2506	0.00033951
28.5006	0.000335695
28.7506	0.000335695
29.0006	0.000335695
29.2506	0.000331881
29.5006	0.000331881
29.7506	0.000335695
30.0006	0.000324251
30.2506	0.000331881
30.5006	0.000324251
30.7506	0.000324251
31.0006	0.000324251
31.2506	0.000335695
31.5006	0.000324251
31.7506	0.000324251
32.0006	0.000320436
32.2506	0.000324251
32.5006	0.000320436
32.7506	0.000320436
33.0006	0.000320436
33.2506	0.000320436
33.5006	0.000320436
33.7506	0.000316622
34.0005	0.000316622
34.2505	0.000316622
34.5004	0.000316622
34.7505	0.000316622
35.0005	0.000316622
35.2505	0.000316622
35.5005	0.000312807
35.7505	0.000316622
36.0005	0.000312807
36.2505	0.000316622
36.5005	0.000308992
36.7505	0.000312807
37.0005	0.000305178
37.2505	0.000305178
37.5005	0.000305178
37.7505	0.000305178
38.0005	0.000305178
38.2505	0.000301363
38.5005	0.000305178
38.7505	0.000305178
39.0005	0.000301363
39.2501	0.000305178
39.4997	0.000297548
39.7496	0.000297548
39.9993	0.000293734
40.2497	0.000297548
40.4997	0.000301363
40.7496	0.000293734
40.999	0.000293734
41.2482	0.000293734
41.5005	0.000289919
41.7505	0.000293734
42.0005	0.000289919
42.2505	0.000289919
42.5005	0.000289919
42.7505	0.000289919
43.0005	0.000289919
43.2505	0.000289919
43.5005	0.000286104
43.7505	0.000289919
44.0005	0.000282289
44.2505	0.000282289
44.5005	0.000282289
44.7505	0.000278475
45.0005	0.000278475
45.2505	0.000278475
45.5005	0.000278475
45.7505	0.000282289
46.0005	0.000282289
46.2505	0.000278475
46.5005	0.00027466
46.7505	0.000278475
47.0005	0.000278475
47.2503	0.00027466
47.5	0.00027466
47.7504	0.000278475
48.0004	0.000270845
48.2504	0.00027466
48.5004	0.00027466
48.7504	0.000270845
49.0004	0.000267031
49.2504	0.000270845
49.5004	0.000267031
49.7504	0.000267031
50.0004	0.000267031
50.2504	0.000263216
50.5004	0.000267031
50.7504	0.000267031
51.0004	0.000267031
51.2504	0.000270845
51.5004	0.000267031
51.7504	0.000263216
52.0004	0.000263216
52.2504	0.000270845
52.5004	0.000267031
52.749	0.000270845
52.9995	0.000270845
53.2504	0.000270845
53.5002	0.000267031
53.7504	0.000270845
54.0004	0.000267031
54.2504	0.00027466
54.5004	0.00027466
54.7504	0.00027466
55.0004	0.000278475
55.2504	0.000282289
55.5004	0.000282289
55.7504	0.000286104
56.0004	0.000289919
56.2504	0.000289919
56.5004	0.000289919
56.7504	0.000293734
57.0004	0.000301363
57.2504	0.000301363
57.5004	0.000308992
57.7504	0.000312807
58.0004	0.000316622
58.2504	0.000320436
58.5004	0.000328066
58.7504	0.000331881
59.0004	0.00033951
59.2504	0.000343325
59.5004	0.000350954
59.7504	0.000354769
60.0004	0.000366213
60.2503	0.000366213
60.4996	0.000373842
60.7499	0.000381472
61.0003	0.000392916
61.2503	0.00039673
61.5003	0.000408174
61.7503	0.000419619
62.0003	0.000431063
62.2503	0.000446321
62.5003	0.000465395
62.7503	0.000476839
63.0003	0.000495914
63.2503	0.000503544
63.5003	0.000526432
63.7503	0.000537876
64.0003	0.000553135
64.2503	0.000568394
64.5003	0.000579838
64.7503	0.000598911
65.0003	0.000610355
65.2503	0.000637058
65.4987	0.000656132
65.7491	0.000682835
66.0003	0.000701908
66.2503	0.000728611
66.5003	0.00074387
66.7503	0.000770573
67.0003	0.00080109
67.2503	0.000823978
67.5003	0.000862125
67.7503	0.000896458
68.0003	0.000942234
68.2503	0.000972752
68.5003	0.00100327
68.7503	0.00102616
69.0003	0.00105286
69.2496	0.00107194
69.5003	0.00110627
69.7503	0.0011406
70.0003	0.00118638
70.2503	0.00122834
70.5003	0.00128938
70.7503	0.00130463
71.0003	0.00138093
71.2503	0.00144196
71.5003	0.00151444
71.7503	0.00156785
72.0003	0.00158692
72.2503	0.00163651
72.5003	0.00167084
72.7503	0.00171281
73.0002	0.00171281
73.2502	0.00172425
73.5002	0.00177384
73.7502	0.00182725
74.0002	0.0018921
74.2502	0.0018921
74.5002	0.00195695
74.7502	0.00203325
75.0002	0.00209428
75.2502	0.00210573
75.5002	0.00213625
75.7499	0.00212862
76.0002	0.00212862
76.2502	0.00217058
76.5002	0.00221254
76.7502	0.00225069
77.0002	0.00226976
77.2502	0.00233079
77.5002	0.00232317
77.7502	0.00234987
78.0002	0.00234224
78.2502	0.00242616
78.5002	0.00240327
78.7502	0.00244142
79.0002	0.00242616
79.2502	0.00249864
79.5002	0.00247194
79.7502	0.00239183
80.0002	0.00231554
80.2502	0.00234224
80.5002	0.00234605
80.7502	0.00233461
81.0002	0.00234605
81.2502	0.00232317
81.5002	0.00236894
81.7502	0.00242616
82.0002	0.00237657
82.2502	0.00226595
82.5002	0.00216676
82.7502	0.00212862
83.0002	0.00198747
83.2502	0.00160599
83.5002	0.00112916
83.7502	0.000682835
84.0002	0.00039673
84.2502	0.000225068
84.5002	0.000156404
84.7502	0.000129701
84.9986	0.000110627
85.2502	0.000106812
85.5002	9.92E-05
85.7502	9.54E-05
86.0001	9.92E-05
86.2501	0.000102997
86.5001	9.92E-05
86.7501	9.54E-05
87.0001	0.000102997
87.2501	0.000106812
87.5001	0.000102997
87.7501	0.000102997
88.0001	9.92E-05
88.2501	0.000102997
88.5001	0.000106812
88.7501	0.000106812
89.0001	0.000106812
89.2501	0.000106812
89.5001	0.000114441
89.7501	0.000125886
90.0001	0.00013733
90.2501	0.000144959
90.5001	0.000148774
90.7501	0.000148774
91.0001	0.000160218
91.2501	0.000171662
91.5001	0.000175477
91.7501	0.000179292
92.0001	0.000183106
92.2501	0.000190736
92.5001	0.000198365
92.7501	0.000205995
93.0001	0.000209809
93.2501	0.000228883
93.5001	0.000217439
93.7501	0.000213624
94.0001	0.000209809
94.2501	0.000221253
94.5001	0.000232697
94.7501	0.000259401
95.0001	0.000263216
95.2501	0.000267031
95.5001	0.000251772
95.7501	0.000221253
96.0001	0.000156404
96.2501	9.92E-05
96.5001	7.25E-05
96.7501	5.72E-05
97.0001	6.10E-05
97.2501	6.87E-05
97.5001	7.25E-05
97.7501	8.01E-05
97.9997	8.39E-05
98.2501	8.77E-05
98.5001	9.54E-05
98.75	0.000102997
99	0.000129701
99.25	0.000160218
99.5	0.000171662
99.75	0.000186921
100	0.000209809
100.25	0.000236512
100.5	0.000167848
100.75	7.25E-05
101	1.14E-05
101.25	7.63E-06
101.5	1.14E-05
101.75	3.81E-06
102	0
102.25	1.53E-05
102.5	1.53E-05
102.75	1.53E-05
103	1.53E-05
103.25	1.53E-05
103.5	1.53E-05
103.75	1.14E-05
104	1.14E-05
104.25	1.53E-05
104.5	1.53E-05
104.75	1.53E-05
105	1.14E-05
105	1.53E-05
