Photodiode Viewing Angle (Degrees) - Plot 0	Lock-in Signal Amplitude (V) - Plot 0
-18.9987	0.0004921
-18.7487	0.000484468
-18.4987	0.000484468
-18.2487	0.000476839
-17.9987	0.000473024
-17.7487	0.00046921
-17.4987	0.000457766
-17.2487	0.000446321
-16.9987	0.000446321
-16.7487	0.000446321
-16.4987	0.000446321
-16.2487	0.000438692
-15.9987	0.000431063
-15.7487	0.000434877
-15.4987	0.000427248
-15.2487	0.000427248
-14.9987	0.000423433
-14.7487	0.000419619
-14.4987	0.000419619
-14.2487	0.000419619
-13.9987	0.000419619
-13.7487	0.000415804
-13.4987	0.000419619
-13.2487	0.000415804
-12.9987	0.000411989
-12.7487	0.000411989
-12.4987	0.000415804
-12.2487	0.000415804
-11.9987	0.000411989
-11.7487	0.000415804
-11.4987	0.000411989
-11.2487	0.00040436
-10.9987	0.00040436
-10.7487	0.00040436
-10.4987	0.00040436
-10.2487	0.00040436
-9.99876	0.00040436
-9.74875	0.000400545
-9.49876	0.00040436
-9.24876	0.000400545
-8.99876	0.000400545
-8.74876	0.00039673
-8.49876	0.00039673
-8.24878	0.000400545
-7.99876	0.000400545
-7.74878	0.00039673
-7.49878	0.00039673
-7.24878	0.00039673
-6.99878	0.00040436
-6.74878	0.00039673
-6.49878	0.000400545
-6.24878	0.00039673
-5.99879	0.000392916
-5.74878	0.000392916
-5.49879	0.000392916
-5.24879	0.000392916
-4.99879	0.000392916
-4.74879	0.000392916
-4.49879	0.000392916
-4.24879	0.000392916
-3.99879	0.000392916
-3.74881	0.000392916
-3.49895	0.000392916
-3.24881	0.000392916
-2.99881	0.000392916
-2.74881	0.000400545
-2.49881	0.000392916
-2.24895	0.000392916
-1.99913	0.000392916
-1.74915	0.000392916
-1.49898	0.000392916
-1.24905	0.000389101
-0.998825	0.000392916
-0.750229	0.000389101
-0.499939	0.000389101
-0.249756	0.000389101
0.00117493	0.000389101
0.25116	0.000389101
0.50116	0.000392916
0.75116	0.000392916
1.00116	0.000392916
1.25116	0.000392916
1.50116	0.000392916
1.75116	0.000392916
2.00116	0.000389101
2.25114	0.000389101
2.50104	0.000389101
2.75072	0.000385286
3.00089	0.000385286
3.25087	0.000381472
3.50055	0.000377657
3.75078	0.000389101
4.00044	0.000385286
4.25113	0.000385286
4.50113	0.000389101
4.75113	0.000389101
5.00113	0.000389101
5.25113	0.000392916
5.50113	0.000389101
5.75111	0.000389101
6.00113	0.000385286
6.25111	0.000381472
6.50111	0.000389101
6.7511	0.000381472
7.00096	0.000385286
7.25108	0.000385286
7.50098	0.000389101
7.75066	0.000385286
8.00063	0.000385286
8.25031	0.000385286
8.50021	0.000381472
8.7511	0.000389101
9.0011	0.000389101
9.2511	0.000381472
9.5011	0.000381472
9.75108	0.000385286
10.0011	0.000377657
10.2511	0.000377657
10.5011	0.000381472
10.7511	0.000381472
11.0011	0.000385286
11.2511	0.000389101
11.5011	0.000385286
11.7511	0.000389101
12.0011	0.000381472
12.2511	0.000377657
12.5011	0.000377657
12.7511	0.000377657
13.0011	0.000377657
13.2511	0.000373842
13.5011	0.000377657
13.7511	0.000373842
14.0011	0.000381472
14.2511	0.000373842
14.5011	0.000377657
14.7511	0.000370027
15.0011	0.000373842
15.2511	0.000373842
15.501	0.000373842
15.7511	0.000373842
16.001	0.000373842
16.251	0.000370027
16.501	0.000366213
16.751	0.000366213
17.001	0.000362398
17.251	0.000366213
17.501	0.000366213
17.751	0.000366213
18.001	0.000366213
18.251	0.000366213
18.501	0.000366213
18.751	0.000366213
19.001	0.000366213
19.251	0.000366213
19.501	0.000362398
19.751	0.000362398
20.0006	0.000358583
20.251	0.000362398
20.501	0.000358583
20.751	0.000358583
21.001	0.000350954
21.251	0.000354769
21.501	0.000358583
21.751	0.000358583
22.001	0.000354769
22.251	0.000350954
22.501	0.000354769
22.751	0.000354769
23.001	0.000358583
23.251	0.000354769
23.501	0.000354769
23.7505	0.000350954
24.001	0.000350954
24.251	0.000347139
24.501	0.000347139
24.751	0.000347139
25.001	0.00033951
25.251	0.000343325
25.501	0.00033951
25.751	0.00033951
26.001	0.00033951
26.251	0.00033951
26.501	0.00033951
26.751	0.00033951
27.001	0.00033951
27.251	0.00033951
27.5009	0.00033951
27.751	0.00033951
28.0009	0.000335695
28.251	0.000335695
28.5009	0.000335695
28.7509	0.000331881
29.0009	0.000331881
29.2509	0.000328066
29.5009	0.000328066
29.7509	0.000324251
30.0009	0.000328066
30.2509	0.000328066
30.5009	0.000324251
30.7509	0.000320436
31.0009	0.000320436
31.2509	0.000320436
31.5009	0.000320436
31.7509	0.000324251
32.0009	0.000324251
32.2509	0.000324251
32.5009	0.000328066
32.7509	0.000324251
33.0009	0.000320436
33.2509	0.000320436
33.5009	0.000316622
33.7509	0.000312807
34.0009	0.000308992
34.2509	0.000308992
34.499	0.000308992
34.7499	0.000305178
35.0009	0.000305178
35.2509	0.000308992
35.5009	0.000308992
35.7509	0.000308992
36.0009	0.000316622
36.2509	0.000308992
36.5009	0.000308992
36.7509	0.000301363
37.0009	0.000308992
37.2509	0.000301363
37.5009	0.000297548
37.7504	0.000297548
38.0009	0.000289919
38.2509	0.000293734
38.5009	0.000293734
38.7509	0.000289919
39.0009	0.000293734
39.2509	0.000289919
39.5009	0.000289919
39.7509	0.000289919
40.0009	0.000289919
40.2509	0.000282289
40.5008	0.000286104
40.7509	0.000282289
41.0008	0.000282289
41.2508	0.000282289
41.5008	0.000286104
41.7508	0.000278475
42.0008	0.000282289
42.2508	0.000282289
42.5008	0.000282289
42.7508	0.000278475
43.0008	0.00027466
43.2508	0.000270845
43.5008	0.000270845
43.7508	0.000267031
44.0008	0.000263216
44.2508	0.000263216
44.5008	0.000263216
44.7508	0.000263216
45.0008	0.000263216
45.2508	0.000263216
45.5008	0.000263216
45.7508	0.000263216
46.0008	0.000259401
46.2508	0.000259401
46.5008	0.000255587
46.7508	0.000255587
47.0008	0.000255587
47.2508	0.000251772
47.5008	0.000251772
47.7508	0.000244142
48.0008	0.000244142
48.2508	0.000244142
48.5008	0.000240327
48.7508	0.000244142
49.0008	0.000240327
49.2508	0.000240327
49.5008	0.000236512
49.7508	0.000232697
50.0008	0.000236512
50.2508	0.000236512
50.5008	0.000236512
50.7508	0.000228883
51.0008	0.000225068
51.2495	0.000225068
51.4992	0.000221253
51.749	0.000221253
52.0008	0.000217439
52.2508	0.000217439
52.5008	0.000209809
52.7508	0.000213624
53.0008	0.000217439
53.2508	0.000217439
53.5007	0.000213624
53.7508	0.000209809
54.0007	0.000209809
54.2507	0.000209809
54.5007	0.000209809
54.7507	0.000209809
55.0007	0.00020218
55.2507	0.000198365
55.5007	0.000198365
55.7507	0.000198365
56.0007	0.00019455
56.2507	0.00019455
56.5007	0.00019455
56.7507	0.000186921
57.0007	0.000183106
57.2507	0.000186921
57.5007	0.000183106
57.7507	0.000183106
58.0007	0.000183106
58.2504	0.000183106
58.5007	0.000183106
58.7507	0.000183106
59.0007	0.000171662
59.2507	0.000171662
59.5007	0.000167848
59.7507	0.000171662
60.0007	0.000171662
60.2507	0.000175477
60.5007	0.000167848
60.7507	0.000167848
61.0007	0.000167848
61.2507	0.000156404
61.5007	0.000156404
61.7507	0.000156404
62.0007	0.000152589
62.2507	0.000156404
62.5007	0.000152589
62.7507	0.000152589
63.0007	0.000148774
63.2507	0.000148774
63.5007	0.000152589
63.7507	0.000152589
64.0007	0.000141145
64.2507	0.000141145
64.5007	0.00013733
64.7507	0.00013733
65.0007	0.00013733
65.2507	0.000133515
65.5007	0.000129701
65.7507	0.000129701
66.0006	0.000125886
66.2506	0.000125886
66.5006	0.000125886
66.7506	0.000125886
67.0006	0.000129701
67.2506	0.000125886
67.5006	0.000125886
67.7506	0.000118256
68.0006	0.000110627
68.2506	0.000114441
68.5006	0.000106812
68.7506	0.000106812
69.0006	0.000102997
69.2506	0.000106812
69.5006	0.000106812
69.7506	0.000102997
70.0006	0.000106812
70.2506	0.000102997
70.5006	9.92E-05
70.7506	9.92E-05
71.0006	9.92E-05
71.2506	9.92E-05
71.5006	9.16E-05
71.7506	8.77E-05
72.0006	8.39E-05
72.2506	8.77E-05
72.5006	8.01E-05
72.7506	8.01E-05
73.0006	7.63E-05
73.2506	7.63E-05
73.5006	8.01E-05
73.7506	7.63E-05
74.0006	7.63E-05
74.2506	7.25E-05
74.5006	7.63E-05
74.7506	7.25E-05
75.0006	6.87E-05
75.2506	6.87E-05
75.5006	6.49E-05
75.7506	6.10E-05
76.0006	6.10E-05
76.2506	6.10E-05
76.5006	6.49E-05
76.7506	6.10E-05
77.0006	5.72E-05
77.2506	4.96E-05
77.5006	4.96E-05
77.7506	4.96E-05
78.0006	4.96E-05
78.2506	5.34E-05
78.5006	4.96E-05
78.7506	4.96E-05
79.0005	4.20E-05
79.2505	3.81E-05
79.5005	3.81E-05
79.7505	3.81E-05
80.0005	3.81E-05
80.2505	3.81E-05
80.5005	3.81E-05
80.7505	3.05E-05
81.0005	3.43E-05
81.2505	3.05E-05
81.5005	3.05E-05
81.7505	3.05E-05
82.0005	2.67E-05
82.2505	2.29E-05
82.5005	2.29E-05
82.7505	2.29E-05
83.0005	2.29E-05
83.2505	2.29E-05
83.5005	1.53E-05
83.7505	1.91E-05
83.9996	1.91E-05
84.249	7.63E-06
84.5005	1.14E-05
84.7505	1.14E-05
85.0005	1.53E-05
85.2505	1.14E-05
85.5005	7.63E-06
85.7505	1.14E-05
86.0005	1.53E-05
86.2505	1.14E-05
86.5005	1.53E-05
86.7505	1.53E-05
87.0005	1.14E-05
87.2489	7.63E-06
87.5004	1.53E-05
87.7505	1.91E-05
88.0005	1.14E-05
88.2505	1.14E-05
88.5005	1.14E-05
88.7505	1.14E-05
89.0005	7.63E-06
89.2505	1.14E-05
89.5005	7.63E-06
89.7505	1.14E-05
90.0005	7.63E-06
90.2505	7.63E-06
90.5005	7.63E-06
90.7505	1.14E-05
91.0005	1.14E-05
91.2505	1.14E-05
91.5005	1.14E-05
91.7505	1.14E-05
92.0005	1.14E-05
92.2505	7.63E-06
92.5005	1.14E-05
92.7504	7.63E-06
93.0004	1.14E-05
93.2504	1.14E-05
93.5004	1.14E-05
93.7503	1.53E-05
94.0004	1.14E-05
94.2504	1.14E-05
94.5004	1.14E-05
94.7504	7.63E-06
95.0004	1.53E-05
95.2504	1.14E-05
95.5004	1.14E-05
95.7504	7.63E-06
96.0004	1.14E-05
96.2504	1.14E-05
96.5004	1.53E-05
96.7504	1.14E-05
97.0004	7.63E-06
97.2504	1.14E-05
97.5004	7.63E-06
97.7504	1.14E-05
98.0004	7.63E-06
98.2504	7.63E-06
98.5004	1.14E-05
98.7504	1.14E-05
99.0004	7.63E-06
99.2504	1.14E-05
99.5004	7.63E-06
99.7504	1.14E-05
100	7.63E-06
100.25	1.14E-05
100.5	1.14E-05
100.75	1.14E-05
101	1.14E-05
101.25	1.14E-05
101.5	7.63E-06
101.75	1.53E-05
102	7.63E-06
102.25	1.14E-05
102.5	7.63E-06
102.75	1.14E-05
103	3.81E-06
103.25	7.63E-06
103.5	7.63E-06
103.75	7.63E-06
104	3.81E-06
104.25	7.63E-06
104.5	7.63E-06
104.75	7.63E-06
105	3.81E-06
105.25	7.63E-06
105.5	7.63E-06
105.75	3.81E-06
106	3.81E-06
106.25	7.63E-06
106.5	3.81E-06
106.75	3.81E-06
107	3.81E-06
107.25	0
107.5	3.81E-06
107.75	3.81E-06
108	3.81E-06
108.25	0
108.5	3.81E-06
108.75	0
109	0
109.25	7.63E-06
109.5	3.81E-06
109.75	0
110	0
110.25	0
110.5	3.81E-06
110.75	0
111	0
111.25	3.81E-06
111.5	3.81E-06
111.75	3.81E-06
112	3.81E-06
112.25	3.81E-06
112.5	3.81E-06
112.75	3.81E-06
113	7.63E-06
113.25	7.63E-06
113.5	7.63E-06
113.75	7.63E-06
114	7.63E-06
114.25	7.63E-06
114.5	1.14E-05
114.75	1.14E-05
115	1.53E-05
115.25	1.53E-05
115.5	1.14E-05
115.75	1.53E-05
116	1.53E-05
116.25	1.53E-05
116.5	1.53E-05
116.75	1.53E-05
117	1.91E-05
117.25	1.91E-05
117.5	1.14E-05
117.75	1.53E-05
118	1.53E-05
118.25	1.53E-05
118.5	1.53E-05
118.75	1.53E-05
119	1.53E-05
119.25	1.53E-05
119.5	1.53E-05
119.75	1.91E-05
120	1.14E-05
120.25	1.91E-05
120.5	1.91E-05
120.75	2.29E-05
121	2.29E-05
121.25	1.91E-05
121.5	1.53E-05
121.75	2.29E-05
122	2.29E-05
122.25	1.91E-05
122.5	2.29E-05
122.75	1.91E-05
123	1.91E-05
123.25	2.67E-05
123.5	2.67E-05
123.75	2.29E-05
124	2.29E-05
124.25	2.67E-05
124.5	2.67E-05
124.75	2.67E-05
125	2.67E-05
125.25	2.67E-05
125.5	2.67E-05
125.75	2.67E-05
126	3.05E-05
126.25	3.05E-05
126.5	2.67E-05
126.75	3.05E-05
127	3.05E-05
127.25	3.43E-05
127.5	3.43E-05
127.75	3.05E-05
128	3.05E-05
128.25	3.05E-05
128.5	2.67E-05
128.75	2.67E-05
129	2.29E-05
129.25	1.53E-05
129.5	1.14E-05
129.75	7.63E-06
130	1.53E-05
130.25	1.91E-05
130.5	1.14E-05
130.75	1.53E-05
131	1.53E-05
131.25	1.91E-05
131.5	1.53E-05
131.75	1.53E-05
132	1.53E-05
132.25	1.91E-05
132.5	1.53E-05
132.75	1.53E-05
133	1.53E-05
133.25	1.53E-05
133.5	1.14E-05
133.75	1.14E-05
134	7.63E-06
134.25	1.14E-05
134.5	1.14E-05
134.75	1.14E-05
135	1.14E-05
135.25	1.53E-05
135.5	1.53E-05
135.75	1.53E-05
136	1.53E-05
136.25	1.91E-05
136.5	1.14E-05
136.75	1.53E-05
137	1.14E-05
137.25	1.53E-05
137.5	1.91E-05
137.75	1.53E-05
138	1.91E-05
138.25	1.53E-05
138.5	1.53E-05
138.75	1.53E-05
139	1.14E-05
139.249	1.91E-05
139.5	1.91E-05
139.75	1.53E-05
140	1.53E-05
140.25	1.53E-05
140.5	1.91E-05
140.75	1.91E-05
141	1.53E-05
141.25	1.53E-05
141.5	1.91E-05
141.75	1.91E-05
142	1.53E-05
142.25	1.91E-05
142.5	1.91E-05
142.75	1.53E-05
143	1.53E-05
143.25	1.53E-05
143.5	1.53E-05
143.75	1.53E-05
144	2.29E-05
144.25	1.53E-05
144.5	1.53E-05
144.75	1.53E-05
145	1.53E-05
145.25	1.53E-05
145.5	1.91E-05
145.75	1.14E-05
146	1.53E-05
146.25	1.53E-05
146.5	1.14E-05
146.75	1.53E-05
147	1.14E-05
147.25	1.14E-05
147.5	1.14E-05
147.75	1.14E-05
148	1.14E-05
148.25	1.14E-05
148.5	1.14E-05
148.75	1.53E-05
149	1.14E-05
149.25	1.14E-05
149.5	1.14E-05
149.75	1.53E-05
150	1.14E-05
150	1.14E-05
-33.9987	0.000431063
-33.7487	0.000419619
-33.4987	0.000419619
-33.2487	0.000411989
-32.9987	0.000408174
-32.7487	0.000400545
-32.4987	0.000392916
-32.2487	0.000385286
-31.9987	0.000381472
-31.7494	0.000381472
-31.4995	0.000381472
-31.2493	0.000373842
-30.9998	0.000373842
-30.7487	0.000370027
-30.4987	0.000370027
-30.2487	0.000373842
-29.9987	0.000366213
-29.7487	0.000366213
-29.4987	0.000366213
-29.2487	0.000362398
-28.9987	0.000362398
-28.7487	0.000362398
-28.4987	0.000358583
-28.2487	0.000358583
-27.9987	0.000362398
-27.7487	0.000362398
-27.4987	0.000362398
-27.2487	0.000362398
-26.9987	0.000362398
-26.7487	0.000362398
-26.4987	0.000358583
-26.2487	0.000354769
-25.9987	0.000358583
-25.7487	0.000350954
-25.4987	0.000354769
-25.2487	0.000350954
-24.9988	0.000350954
-24.7487	0.000354769
-24.4988	0.000354769
-24.2488	0.000350954
-23.9988	0.000347139
-23.7488	0.000354769
-23.4988	0.000354769
-23.2488	0.000350954
-22.9988	0.000354769
-22.7488	0.000350954
-22.4988	0.000358583
-22.2488	0.000354769
-21.9988	0.000354769
-21.7488	0.000350954
-21.4988	0.000362398
-21.2488	0.000354769
-20.9988	0.000347139
-20.7488	0.000347139
-20.4988	0.000350954
-20.2488	0.000350954
-19.9988	0.000350954
-19.7488	0.000350954
-19.4988	0.000350954
-19.2493	0.000354769
-18.9998	0.000350954
-18.7498	0.000354769
-18.5003	0.000354769
-18.25	0.000358583
-17.9988	0.000362398
-17.7488	0.000362398
-17.4988	0.000358583
-17.2488	0.000354769
-16.9988	0.000358583
-16.7488	0.000358583
-16.4988	0.000358583
-16.2488	0.000350954
-15.9988	0.000354769
-15.7488	0.000358583
-15.4988	0.000354769
-15.2488	0.000354769
-14.9988	0.000358583
-14.7488	0.000362398
-14.4988	0.000362398
-14.2488	0.000362398
-13.9988	0.000362398
-13.7488	0.000362398
-13.4988	0.000362398
-13.2488	0.000362398
-12.9988	0.000362398
-12.7489	0.000358583
-12.4989	0.000358583
-12.2489	0.000358583
-11.9989	0.000362398
-11.7489	0.000362398
-11.4989	0.000362398
-11.2489	0.000362398
-10.9989	0.000362398
-10.7489	0.000366213
-10.4989	0.000366213
-10.2489	0.000366213
-9.99887	0.000366213
-9.74887	0.000366213
-9.49887	0.000366213
-9.24889	0.000366213
-8.99887	0.000366213
-8.74889	0.000362398
-8.49889	0.000362398
-8.24889	0.000362398
-7.99889	0.000366213
-7.74889	0.000362398
-7.49889	0.000366213
-7.24892	0.000366213
-6.9989	0.000370027
-6.74907	0.000366213
-6.49933	0.000366213
-6.24939	0.000370027
-5.99915	0.000366213
-5.74962	0.000366213
-5.49988	0.000366213
-5.24995	0.000366213
-5.00038	0.000366213
-4.74994	0.000366213
-4.49892	0.000366213
-4.24892	0.000366213
-3.99892	0.000366213
-3.74892	0.000366213
-3.49893	0.000370027
-3.24892	0.000373842
-2.99893	0.000370027
-2.74892	0.000366213
-2.49893	0.000370027
-2.24893	0.000366213
-1.99893	0.000366213
-1.74893	0.000366213
-1.49893	0.000366213
-1.24895	0.000370027
-0.998932	0.000373842
-0.748947	0.000366213
-0.498947	0.000370027
-0.248947	0.000373842
0.00105286	0.000373842
0.251053	0.000370027
0.501038	0.000366213
0.751053	0.000370027
1.00104	0.000370027
1.25104	0.000366213
1.50104	0.000366213
1.75104	0.000366213
2.00104	0.000366213
2.25102	0.000366213
2.50104	0.000366213
2.75102	0.000362398
3.00104	0.000366213
3.25102	0.000366213
3.50102	0.000366213
3.75102	0.000366213
4.00102	0.000366213
4.25102	0.000366213
4.50101	0.000366213
4.75102	0.000366213
5.00101	0.000362398
5.25101	0.000362398
5.50101	0.000358583
5.75101	0.000366213
6.00101	0.000366213
6.25099	0.000366213
6.50101	0.000366213
6.75099	0.000362398
7.001	0.000366213
7.25099	0.000366213
7.501	0.000366213
7.75011	0.000366213
8.00098	0.000366213
8.25098	0.000366213
8.50098	0.000362398
8.75098	0.000362398
9.00098	0.000366213
9.25098	0.000358583
9.50098	0.000358583
9.75098	0.000358583
10.001	0.000358583
10.251	0.000358583
10.501	0.000362398
10.751	0.000358583
11.001	0.000358583
11.251	0.000362398
11.501	0.000362398
11.751	0.000362398
12.001	0.000358583
12.251	0.000358583
12.5009	0.000362398
12.751	0.000362398
13.0009	0.000362398
13.251	0.000358583
13.5009	0.000358583
13.7509	0.000358583
14.0009	0.000358583
14.2505	0.000358583
14.5009	0.000350954
14.7509	0.000358583
15.0009	0.000354769
15.2509	0.000354769
15.5009	0.000350954
15.7509	0.000354769
16.0009	0.000354769
16.2509	0.000354769
16.5009	0.000354769
16.7509	0.000358583
17.0009	0.000358583
17.2509	0.000358583
17.5009	0.000358583
17.7509	0.000358583
18.0009	0.000354769
18.2509	0.000350954
18.5009	0.000350954
18.7509	0.000347139
19.0001	0.000347139
19.2495	0.000343325
19.4996	0.000347139
19.7492	0.000347139
19.9997	0.000350954
20.2509	0.000347139
20.5009	0.000350954
20.7509	0.000354769
21.0009	0.000350954
21.2509	0.000350954
21.5009	0.000350954
21.7509	0.000347139
22.0009	0.000347139
22.2509	0.000347139
22.5009	0.000343325
22.7509	0.00033951
23.0009	0.00033951
23.2509	0.00033951
23.5009	0.00033951
23.7509	0.00033951
24.0009	0.00033951
24.2509	0.000343325
24.5009	0.000343325
24.7509	0.00033951
25.0009	0.00033951
25.2509	0.00033951
25.5008	0.00033951
25.7509	0.000335695
26.0008	0.00033951
26.2508	0.000335695
26.5008	0.000335695
26.7508	0.000335695
27.0008	0.000335695
27.2508	0.000335695
27.5008	0.000335695
27.7508	0.00033951
28.0008	0.000335695
28.2508	0.000335695
28.5008	0.000331881
28.7508	0.000328066
29.0008	0.000328066
29.2508	0.000324251
29.5008	0.000324251
29.7508	0.000324251
30.0008	0.000324251
30.2508	0.000324251
30.5008	0.000324251
30.7501	0.000328066
31.0008	0.000324251
31.2508	0.000324251
31.5003	0.000320436
31.7508	0.000320436
32.0008	0.000320436
32.2508	0.000316622
32.5008	0.000316622
32.7508	0.000316622
33.0008	0.000316622
33.2508	0.000316622
33.5008	0.000308992
33.7508	0.000312807
34.0008	0.000312807
34.2508	0.000312807
34.5008	0.000308992
34.7501	0.000312807
35.0008	0.000312807
35.2508	0.000308992
35.5008	0.000308992
35.7508	0.000305178
36.0008	0.000297548
36.2508	0.000297548
36.5008	0.000297548
36.7508	0.000297548
37.0008	0.000297548
37.2508	0.000297548
37.5008	0.000297548
37.7508	0.000297548
38.0008	0.000293734
38.2508	0.000297548
38.5007	0.000297548
38.7508	0.000301363
39.0007	0.000293734
39.2507	0.000297548
39.5007	0.000297548
39.7507	0.000293734
40.0007	0.000293734
40.2507	0.000289919
40.5007	0.000289919
40.7507	0.000289919
41.0007	0.000289919
41.2507	0.000286104
41.5007	0.000286104
41.7507	0.000286104
42.0007	0.000286104
42.2507	0.000286104
42.5007	0.000282289
42.7507	0.000282289
43.0007	0.000282289
43.2507	0.000282289
43.5007	0.000282289
43.7507	0.000282289
44.0007	0.000270845
44.2507	0.000270845
44.5007	0.000267031
44.7507	0.000270845
45.0007	0.000270845
45.2507	0.000270845
45.5007	0.000267031
45.7507	0.000267031
46.0007	0.000267031
46.2507	0.000259401
46.5007	0.000259401
46.7507	0.000255587
47.0007	0.000255587
47.2507	0.000255587
47.5007	0.000255587
47.7507	0.000255587
48.0007	0.000255587
48.2507	0.000255587
48.5007	0.000255587
48.7507	0.000255587
49.0007	0.000247957
49.2507	0.000247957
49.5007	0.000247957
49.7507	0.000244142
50.0007	0.000236512
50.2507	0.000236512
50.5007	0.000240327
50.7507	0.000236512
51.0006	0.000236512
51.2506	0.000236512
51.5006	0.000236512
51.7506	0.000244142
52.0006	0.000244142
52.2506	0.000236512
52.5006	0.000236512
52.7506	0.000236512
53.0006	0.000232697
53.2506	0.000225068
53.5006	0.000225068
53.7506	0.000225068
54.0002	0.000221253
54.2506	0.000221253
54.5006	0.000221253
54.7506	0.000221253
55.0006	0.000225068
55.2506	0.000217439
55.5006	0.000217439
55.7506	0.000217439
56.0006	0.000217439
56.2506	0.000217439
56.5006	0.000209809
56.7506	0.000209809
57.0006	0.000209809
57.2506	0.000205995
57.5006	0.000209809
57.7506	0.000205995
58.0006	0.000205995
58.2506	0.000209809
58.5006	0.000209809
58.7506	0.000209809
59.0006	0.000205995
59.2506	0.00020218
59.5006	0.000198365
59.7506	0.000198365
60.0006	0.00019455
60.2506	0.00019455
60.5006	0.000190736
60.7506	0.000190736
61.0006	0.000190736
61.2506	0.00019455
61.5006	0.00019455
61.7506	0.000190736
62.0006	0.000183106
62.2506	0.000183106
62.5005	0.000183106
62.7506	0.000183106
63.0006	0.000183106
63.2506	0.000183106
63.5006	0.000183106
63.7506	0.000179292
64.0005	0.000175477
64.2505	0.000171662
64.5005	0.000167848
64.7505	0.000167848
65.0005	0.000167848
65.2505	0.000164033
65.5005	0.000167848
65.7505	0.000164033
66.0005	0.000160218
66.2505	0.000167848
66.5005	0.000164033
66.7505	0.000160218
67.0005	0.000160218
67.2505	0.000156404
67.5005	0.000156404
67.7505	0.000156404
68.0005	0.000152589
68.2505	0.000156404
68.5005	0.000144959
68.7505	0.000141145
69.0005	0.000141145
69.2505	0.000141145
69.5005	0.000141145
69.7505	0.000144959
70.0005	0.000141145
70.2505	0.000141145
70.5005	0.000133515
70.7505	0.000133515
71.0005	0.000133515
71.2505	0.000133515
71.5005	0.000129701
71.7505	0.000125886
72.0005	0.000125886
72.2505	0.000125886
72.5005	0.000114441
72.7502	0.000122071
73.0005	0.000110627
73.2505	0.000114441
73.4998	0.000118256
73.7505	0.000118256
74.0005	0.000114441
74.2505	0.000110627
74.5005	0.000106812
74.7505	0.000106812
75.0005	9.92E-05
75.2505	0.000102997
75.5005	0.000102997
75.7505	9.92E-05
76.0005	9.16E-05
76.2505	9.16E-05
76.5005	9.16E-05
76.7502	9.54E-05
77	9.16E-05
77.2505	8.77E-05
77.5005	8.01E-05
77.7504	8.01E-05
78.0004	8.01E-05
78.2504	8.01E-05
78.5004	8.01E-05
78.7504	7.63E-05
79.0004	7.63E-05
79.2504	7.25E-05
79.5004	6.87E-05
79.7502	6.49E-05
80.0004	6.10E-05
80.2504	6.10E-05
80.5004	6.49E-05
80.7504	6.10E-05
81.0004	6.10E-05
81.2504	5.72E-05
81.5004	4.96E-05
81.7504	4.96E-05
82.0004	4.96E-05
82.2504	4.58E-05
82.5004	4.96E-05
82.7504	4.96E-05
83.0003	4.58E-05
83.2504	3.81E-05
83.5004	3.81E-05
83.7504	4.20E-05
84.0004	3.05E-05
84.2504	2.29E-05
84.5004	1.14E-05
84.7504	3.81E-06
85.0004	7.63E-06
85.2504	7.63E-06
85.5004	1.14E-05
85.7504	7.63E-06
86.0004	1.14E-05
86.2504	1.14E-05
86.5004	1.53E-05
86.7503	7.63E-06
87.0004	7.63E-06
87.2504	7.63E-06
87.5004	3.81E-06
87.7504	7.63E-06
88.0004	1.14E-05
88.2504	3.81E-06
88.5004	7.63E-06
88.7504	3.81E-06
89.0004	7.63E-06
89.2504	7.63E-06
89.5004	3.81E-06
89.7504	7.63E-06
90.0004	1.14E-05
90.2503	7.63E-06
90.5003	7.63E-06
90.7503	7.63E-06
91.0003	7.63E-06
91.2503	7.63E-06
91.5003	7.63E-06
91.7503	0
92.0003	3.81E-06
92.2503	0
92.5003	3.81E-06
92.7503	3.81E-06
93.0003	3.81E-06
93.2503	3.81E-06
93.5003	0
93.7503	3.81E-06
94.0003	3.81E-06
94.2503	3.81E-06
94.5003	0
94.7503	3.81E-06
95.0003	0
95.2503	0
95.5003	0
95.7503	0
96.0003	3.81E-06
96.2503	0
96.4999	0
96.7503	0
97.0003	0
97.2503	0
97.5003	0
97.7503	0
98.0003	3.81E-06
98.2503	3.81E-06
98.5003	7.63E-06
98.7503	7.63E-06
99.0003	0
99.2503	3.81E-06
99.5003	7.63E-06
99.7503	7.63E-06
100	3.81E-06
100.25	7.63E-06
100.5	7.63E-06
100.75	3.81E-06
101	7.63E-06
101.25	1.14E-05
101.5	7.63E-06
101.75	7.63E-06
102	3.81E-06
102.25	7.63E-06
102.5	3.81E-06
102.75	7.63E-06
103	7.63E-06
103.25	3.81E-06
103.5	3.81E-06
103.75	7.63E-06
104	7.63E-06
104.25	3.81E-06
104.5	7.63E-06
104.75	1.14E-05
105	7.63E-06
105.25	7.63E-06
105.5	7.63E-06
105.75	7.63E-06
106	1.14E-05
106.25	1.14E-05
106.5	1.14E-05
106.75	7.63E-06
107	1.14E-05
107.25	1.53E-05
107.5	1.53E-05
107.75	1.14E-05
108	1.53E-05
108.25	1.53E-05
108.5	1.53E-05
108.75	1.91E-05
109	1.91E-05
109.25	1.91E-05
109.5	1.91E-05
109.75	1.91E-05
110	2.29E-05
110.25	1.91E-05
110.5	2.29E-05
110.75	2.29E-05
111	2.29E-05
111.25	2.29E-05
111.5	2.29E-05
111.75	2.29E-05
112	2.29E-05
112.25	2.67E-05
112.5	3.05E-05
112.75	3.05E-05
113	3.05E-05
113.25	3.05E-05
113.499	2.67E-05
113.75	3.43E-05
113.998	3.81E-05
114.25	4.20E-05
114.5	3.81E-05
114.75	4.20E-05
115	3.81E-05
115.25	4.58E-05
115.5	4.20E-05
115.75	4.58E-05
116	4.58E-05
116.25	4.96E-05
116.5	4.58E-05
116.75	4.96E-05
117	4.96E-05
117.25	4.96E-05
117.5	4.96E-05
117.75	4.58E-05
118	3.81E-05
118.25	3.43E-05
118.5	2.29E-05
118.75	1.53E-05
119	1.14E-05
119.25	1.14E-05
119.5	1.14E-05
119.75	1.14E-05
120	1.14E-05
120.25	1.53E-05
120.5	1.14E-05
120.75	1.53E-05
121	1.14E-05
121.25	1.14E-05
121.5	1.14E-05
121.75	1.14E-05
122	1.53E-05
122.25	1.14E-05
122.5	1.53E-05
122.75	1.14E-05
123	1.14E-05
123.25	1.14E-05
123.5	1.14E-05
123.75	1.14E-05
124	1.14E-05
124.25	1.14E-05
124.5	1.14E-05
124.75	1.53E-05
125	1.14E-05
125.25	1.14E-05
125.5	1.14E-05
125.75	1.91E-05
126	1.53E-05
126.25	1.53E-05
126.5	1.14E-05
126.75	1.53E-05
127	1.53E-05
127.25	1.53E-05
127.5	1.14E-05
127.75	1.53E-05
128	1.53E-05
128.25	1.14E-05
128.5	1.14E-05
128.75	1.14E-05
129	1.14E-05
129.25	1.14E-05
129.5	7.63E-06
129.75	3.81E-06
130	1.53E-05
130.25	1.14E-05
130.5	1.53E-05
130.75	1.53E-05
131	1.14E-05
131.25	1.14E-05
131.5	1.14E-05
131.75	1.53E-05
132	1.14E-05
132.25	1.53E-05
132.5	1.14E-05
132.75	7.63E-06
133	1.53E-05
133.25	1.14E-05
133.5	1.53E-05
133.75	1.14E-05
134	1.14E-05
134.25	1.14E-05
134.5	1.14E-05
134.75	1.14E-05
135	1.14E-05
135	1.91E-05
-48.9987	0.000331881
-48.7487	0.000331881
-48.4987	0.000324251
-48.2487	0.000320436
-47.9987	0.000316622
-47.7487	0.000308992
-47.4987	0.000297548
-47.2487	0.000289919
-46.9987	0.000289919
-46.7487	0.000289919
-46.4987	0.000289919
-46.2487	0.000289919
-45.9987	0.000286104
-45.7487	0.000282289
-45.4987	0.000278475
-45.2487	0.000278475
-44.9987	0.000278475
-44.7487	0.000278475
-44.4987	0.000278475
-44.2487	0.000270845
-43.9987	0.000270845
-43.7488	0.000270845
-43.4988	0.000270845
-43.2489	0.000267031
-42.9987	0.000267031
-42.7487	0.00027466
-42.4987	0.000263216
-42.2487	0.000267031
-41.9987	0.000267031
-41.7487	0.000267031
-41.4987	0.000263216
-41.2487	0.000263216
-40.9987	0.000263216
-40.7487	0.000263216
-40.4987	0.000267031
-40.2487	0.000267031
-39.9988	0.000267031
-39.7487	0.000263216
-39.4988	0.000263216
-39.2488	0.000263216
-38.9988	0.000263216
-38.7488	0.000263216
-38.4988	0.000270845
-38.2488	0.000263216
-37.9988	0.00027466
-37.7488	0.000267031
-37.4988	0.000270845
-37.2488	0.000267031
-36.9988	0.000278475
-36.7488	0.000270845
-36.4988	0.000270845
-36.2488	0.000270845
-35.9988	0.000270845
-35.7488	0.000270845
-35.4988	0.00027466
-35.2488	0.000270845
-34.9988	0.00027466
-34.7488	0.000270845
-34.4988	0.000270845
-34.2488	0.00027466
-33.9988	0.000278475
-33.7488	0.000278475
-33.4988	0.000282289
-33.2488	0.000282289
-32.9988	0.000282289
-32.7488	0.000282289
-32.4988	0.000282289
-32.2488	0.000282289
-31.9988	0.000282289
-31.7488	0.000282289
-31.4988	0.000278475
-31.2488	0.000282289
-30.9988	0.000282289
-30.7488	0.000282289
-30.4988	0.000286104
-30.2488	0.000286104
-29.9988	0.000286104
-29.7488	0.000289919
-29.4988	0.000289919
-29.2488	0.000289919
-28.9988	0.000289919
-28.7488	0.000289919
-28.4988	0.000286104
-28.2488	0.000289919
-27.9988	0.000286104
-27.7489	0.000286104
-27.4989	0.000289919
-27.2489	0.000289919
-26.9989	0.000289919
-26.7489	0.000289919
-26.4989	0.000289919
-26.2489	0.000289919
-25.9989	0.000293734
-25.7489	0.000293734
-25.4989	0.000293734
-25.2489	0.000293734
-24.9989	0.000293734
-24.7489	0.000293734
-24.4989	0.000293734
-24.2489	0.000301363
-23.9989	0.000293734
-23.7489	0.000289919
-23.4989	0.000297548
-23.2489	0.000297548
-22.9989	0.000301363
-22.7489	0.000301363
-22.4989	0.000305178
-22.2489	0.000305178
-21.9989	0.000301363
-21.7489	0.000308992
-21.4989	0.000301363
-21.2489	0.000305178
-20.9989	0.000305178
-20.7501	0.000301363
-20.5004	0.000305178
-20.2489	0.000305178
-19.9989	0.000308992
-19.7489	0.000308992
-19.4989	0.000308992
-19.2489	0.000308992
-18.9989	0.000312807
-18.7489	0.000312807
-18.4989	0.000308992
-18.2489	0.000312807
-17.9989	0.000312807
-17.7489	0.000312807
-17.4989	0.000308992
-17.2489	0.000308992
-16.9989	0.000316622
-16.7489	0.000316622
-16.4989	0.000316622
-16.2489	0.000312807
-15.9989	0.000316622
-15.7489	0.000316622
-15.4989	0.000316622
-15.2489	0.000316622
-14.9989	0.000316622
-14.7489	0.000316622
-14.499	0.000316622
-14.2489	0.000316622
-13.999	0.000316622
-13.749	0.000316622
-13.499	0.000316622
-13.249	0.000316622
-12.999	0.000316622
-12.749	0.000316622
-12.499	0.000316622
-12.249	0.000316622
-11.999	0.000316622
-11.749	0.000320436
-11.499	0.000320436
-11.249	0.000320436
-10.999	0.000316622
-10.7491	0.000316622
-10.499	0.000316622
-10.249	0.000316622
-9.99899	0.000316622
-9.74899	0.000316622
-9.49899	0.000316622
-9.24899	0.000320436
-8.99899	0.000316622
-8.74901	0.000320436
-8.49899	0.000316622
-8.24901	0.000320436
-7.999	0.000324251
-7.74901	0.000324251
-7.499	0.000320436
-7.24901	0.000324251
-6.99902	0.000320436
-6.74902	0.000316622
-6.49902	0.000324251
-6.24902	0.000320436
-5.99902	0.000320436
-5.74902	0.000320436
-5.49902	0.000320436
-5.24902	0.000320436
-4.99902	0.000320436
-4.74903	0.000320436
-4.49903	0.000320436
-4.24904	0.000324251
-3.99903	0.000320436
-3.74904	0.000320436
-3.49904	0.000324251
-3.24904	0.000320436
-2.99904	0.000324251
-2.74905	0.000324251
-2.49926	0.000324251
-2.24957	0.000320436
-1.99996	0.000324251
-1.74967	0.000324251
-1.4996	0.000324251
-1.24905	0.000324251
-0.999062	0.000324251
-0.749062	0.000320436
-0.499062	0.000328066
-0.249069	0.000324251
0.000938416	0.000324251
0.250931	0.000324251
0.500931	0.000328066
0.750923	0.000324251
1.00093	0.000328066
1.25092	0.000328066
1.50092	0.000328066
1.75092	0.000331881
2.00092	0.000331881
2.25092	0.000331881
2.50092	0.000335695
2.75092	0.000331881
3.00091	0.000331881
3.25092	0.000331881
3.50091	0.000324251
3.7509	0.000328066
4.00091	0.000324251
4.2509	0.000328066
4.5009	0.000331881
4.75089	0.00033951
5.0009	0.000331881
5.25089	0.000335695
5.50089	0.000331881
5.75089	0.000328066
6.00089	0.000331881
6.25089	0.000331881
6.50088	0.000331881
6.75089	0.000331881
7.00088	0.000331881
7.25089	0.000331881
7.50088	0.000331881
7.75087	0.000331881
8.00087	0.000328066
8.25087	0.000328066
8.50087	0.000335695
8.75086	0.000331881
9.00087	0.000331881
9.25086	0.000331881
9.50086	0.000331881
9.75086	0.000335695
10.0009	0.000328066
10.2509	0.000328066
10.5008	0.000331881
10.7509	0.000335695
11.0008	0.000328066
11.2508	0.000335695
11.5008	0.000331881
11.7508	0.000331881
12.0008	0.000335695
12.2508	0.000335695
12.5008	0.00033951
12.7508	0.000331881
13.0008	0.000328066
13.2508	0.000331881
13.5008	0.000331881
13.7508	0.000328066
14.0008	0.000331881
14.2508	0.00033951
14.5008	0.000331881
14.7508	0.000335695
15.0008	0.000331881
15.2508	0.000335695
15.5008	0.000331881
15.7508	0.000328066
16.0008	0.000331881
16.2508	0.000331881
16.5008	0.000331881
16.7508	0.000328066
17.0008	0.000331881
17.2508	0.000328066
17.5008	0.000331881
17.7508	0.000328066
18.0008	0.000331881
18.2508	0.000331881
18.5	0.000331881
18.7501	0.000328066
18.9997	0.000331881
19.2501	0.000324251
19.5008	0.000328066
19.7508	0.000324251
20.0008	0.000324251
20.2508	0.000324251
20.5008	0.000324251
20.7508	0.000324251
21.0008	0.000324251
21.2508	0.000320436
21.5008	0.000324251
21.7508	0.000324251
22.0008	0.000324251
22.2508	0.000324251
22.5008	0.000324251
22.7508	0.000324251
23.0008	0.000320436
23.2508	0.000324251
23.5007	0.000324251
23.7508	0.000324251
24.0007	0.000324251
24.2507	0.000320436
24.5007	0.000320436
24.7507	0.000320436
25.0007	0.000320436
25.2507	0.000320436
25.5007	0.000316622
25.7507	0.000316622
26.0007	0.000320436
26.2507	0.000320436
26.5007	0.000316622
26.7507	0.000324251
27.0007	0.000316622
27.2507	0.000316622
27.5007	0.000320436
27.7507	0.000320436
28.0007	0.000316622
28.2507	0.000316622
28.5007	0.000316622
28.7507	0.000316622
29.0007	0.000316622
29.2507	0.000316622
29.5007	0.000316622
29.7507	0.000308992
30.0007	0.000312807
30.2506	0.000308992
30.5007	0.000308992
30.7507	0.000312807
31.0007	0.000305178
31.2507	0.000297548
31.5007	0.000308992
31.7507	0.000308992
32.0007	0.000305178
32.2507	0.000305178
32.5007	0.000305178
32.7507	0.000301363
33.0007	0.000305178
33.2507	0.000305178
33.5007	0.000301363
33.7507	0.000297548
34.0007	0.000297548
34.2507	0.000297548
34.5007	0.000297548
34.7507	0.000297548
35.0007	0.000297548
35.2507	0.000293734
35.5007	0.000297548
35.7507	0.000301363
36.0006	0.000301363
36.2506	0.000301363
36.5006	0.000305178
36.7506	0.000297548
37.0006	0.000297548
37.2506	0.000297548
37.5006	0.000297548
37.7506	0.000297548
38.0006	0.000293734
38.2506	0.000289919
38.5006	0.000289919
38.7506	0.000289919
39.0006	0.000293734
39.2506	0.000289919
39.5006	0.000289919
39.7506	0.000289919
40.0006	0.000289919
40.2495	0.000289919
40.5006	0.000289919
40.7506	0.000289919
41.0006	0.000289919
41.2506	0.000282289
41.5006	0.000286104
41.7506	0.000282289
42.0006	0.000289919
42.2506	0.000289919
42.5006	0.000289919
42.7506	0.000289919
43.0006	0.000289919
43.2506	0.000289919
43.5006	0.000289919
43.7506	0.000289919
44.0006	0.000289919
44.2506	0.000286104
44.5006	0.000282289
44.7506	0.000282289
45.0006	0.000286104
45.2506	0.000282289
45.5006	0.000286104
45.7506	0.000289919
46.0006	0.000289919
46.2506	0.000289919
46.5006	0.000286104
46.75	0.000286104
47	0.000289919
47.2506	0.000286104
47.5006	0.000282289
47.7506	0.000286104
48.0006	0.000278475
48.2506	0.000282289
48.5006	0.000278475
48.7506	0.000282289
49.0005	0.000278475
49.2505	0.000278475
49.5005	0.00027466
49.7505	0.00027466
50.0005	0.000282289
50.2505	0.000282289
50.5005	0.000282289
50.7505	0.000286104
51.0005	0.000282289
51.2505	0.000282289
51.5005	0.000278475
51.7505	0.000282289
52.0005	0.000286104
52.2505	0.00027466
52.5005	0.00027466
52.7505	0.000270845
53.0005	0.00027466
53.2505	0.000270845
53.5005	0.00027466
53.7505	0.000278475
54.0005	0.000278475
54.2505	0.000278475
54.5005	0.000282289
54.7505	0.000282289
55.0005	0.000278475
55.2493	0.000278475
55.5005	0.00027466
55.7505	0.00027466
56.0005	0.00027466
56.2505	0.000270845
56.5005	0.00027466
56.7505	0.00027466
57.0005	0.000270845
57.2505	0.000278475
57.5005	0.00027466
57.7505	0.00027466
58.0005	0.000278475
58.2505	0.000278475
58.5005	0.000278475
58.7505	0.00027466
59.0004	0.000270845
59.2504	0.000270845
59.5005	0.000267031
59.7504	0.00027466
60.0005	0.000270845
60.2496	0.000263216
60.4999	0.000263216
60.7505	0.000270845
60.9993	0.00027466
61.2498	0.00027466
61.5005	0.000270845
61.7505	0.000270845
62.0005	0.000259401
62.2505	0.000267031
62.5005	0.000270845
62.7504	0.000270845
63.0004	0.000270845
63.2504	0.000267031
63.5002	0.000263216
63.7501	0.000259401
64.0001	0.000263216
64.2504	0.000263216
64.5004	0.000267031
64.7504	0.000267031
65.0004	0.000270845
65.2504	0.000270845
65.5004	0.000267031
65.7504	0.000267031
66.0004	0.000263216
66.2504	0.000259401
66.5004	0.000259401
66.7504	0.000263216
67.0004	0.000263216
67.2504	0.000267031
67.5004	0.000259401
67.7504	0.000263216
68.0004	0.000263216
68.2504	0.000267031
68.5004	0.000263216
68.7504	0.000263216
69.0004	0.000259401
69.2504	0.000255587
69.5004	0.000255587
69.7504	0.000259401
70.0004	0.000259401
70.2504	0.000247957
70.5004	0.000244142
70.7504	0.000251772
71.0004	0.000244142
71.2504	0.000244142
71.5004	0.000255587
71.7504	0.000247957
72.0004	0.000244142
72.2504	0.000240327
72.5004	0.000240327
72.7504	0.000244142
73.0004	0.000240327
73.2504	0.000240327
73.5004	0.000228883
73.7504	0.000228883
74.0004	0.000225068
74.2504	0.000228883
74.5004	0.000228883
74.7504	0.000225068
75.0004	0.000225068
75.2503	0.000225068
75.5003	0.000228883
75.7503	0.000225068
76.0003	0.000221253
76.2503	0.000213624
76.5003	0.000213624
76.7503	0.000221253
77.0003	0.000221253
77.2503	0.000217439
77.5003	0.000209809
77.7495	0.00020218
78.0003	0.000198365
78.2503	0.00020218
78.5003	0.000205995
78.7503	0.00020218
79.0003	0.00020218
79.2503	0.00020218
79.5003	0.000190736
79.7503	0.000183106
80.0003	0.000175477
80.2503	0.000171662
80.5003	0.000167848
80.7503	0.000164033
81.0003	0.000160218
81.2503	0.000160218
81.5003	0.000164033
81.7503	0.000156404
82.0003	0.000156404
82.2503	0.000156404
82.5003	0.000156404
82.7503	0.000148774
83.0003	0.000144959
83.2503	0.000141145
83.5003	0.000129701
83.7503	0.000129701
84.0003	0.000118256
84.2503	0.000102997
84.5003	6.87E-05
84.7503	3.81E-05
85.0003	1.91E-05
85.2503	1.14E-05
85.5003	1.14E-05
85.7503	1.53E-05
86.0003	1.14E-05
86.2503	1.14E-05
86.5003	1.14E-05
86.7503	1.14E-05
87.0003	1.14E-05
87.2503	1.14E-05
87.5003	1.14E-05
87.7503	7.63E-06
88.0002	7.63E-06
88.2502	1.14E-05
88.5002	1.14E-05
88.7502	7.63E-06
89.0002	7.63E-06
89.2502	7.63E-06
89.5002	7.63E-06
89.7502	1.14E-05
90.0002	3.81E-06
90.2502	1.14E-05
90.5002	1.14E-05
90.7502	1.14E-05
91.0002	1.14E-05
91.2502	1.14E-05
91.5002	1.14E-05
91.7502	1.14E-05
92.0002	1.53E-05
92.2502	1.14E-05
92.5002	1.14E-05
92.7502	7.63E-06
93.0002	1.14E-05
93.2502	1.53E-05
93.5002	1.91E-05
93.7502	1.53E-05
94.0002	1.53E-05
94.2502	1.53E-05
94.5002	1.91E-05
94.7502	1.53E-05
95.0002	1.53E-05
95.2502	2.29E-05
95.5002	1.91E-05
95.7502	1.91E-05
96.0002	1.91E-05
96.2502	2.29E-05
96.5002	2.29E-05
96.7502	2.29E-05
97.0002	2.29E-05
97.2502	2.29E-05
97.5002	2.67E-05
97.7502	2.67E-05
98.0002	2.67E-05
98.2502	2.67E-05
98.5002	3.05E-05
98.7502	3.43E-05
99.0002	3.05E-05
99.2502	3.43E-05
99.5002	3.43E-05
99.7502	3.05E-05
100	3.81E-05
100.25	3.81E-05
100.5	4.20E-05
100.75	3.81E-05
101	4.58E-05
101.25	4.58E-05
101.5	4.58E-05
101.75	4.96E-05
102	4.96E-05
102.25	4.96E-05
102.5	4.96E-05
102.75	4.58E-05
103	4.96E-05
103.25	4.96E-05
103.5	5.72E-05
103.75	5.72E-05
104	6.10E-05
104.25	6.10E-05
104.5	6.87E-05
104.75	7.63E-05
105	8.39E-05
105.25	9.16E-05
105.5	0.000102997
105.75	0.000102997
106	0.000110627
106.25	0.000114441
106.5	0.000125886
106.75	0.000129701
107	0.000129701
107.25	0.00013733
107.5	0.000148774
107.75	0.000129701
108	0.000102997
108.25	7.63E-05
108.5	5.34E-05
108.75	3.43E-05
109	2.29E-05
109.25	1.53E-05
109.5	1.14E-05
109.75	1.14E-05
110	1.14E-05
110.25	1.14E-05
110.5	1.14E-05
110.75	7.63E-06
111	1.14E-05
111.25	1.14E-05
111.5	7.63E-06
111.75	1.53E-05
112	1.53E-05
112.25	7.63E-06
112.5	0
112.75	1.14E-05
113	1.14E-05
113.25	1.14E-05
113.5	7.63E-06
113.75	1.53E-05
114	1.14E-05
114.25	1.14E-05
114.5	1.53E-05
114.75	1.14E-05
115	1.14E-05
115.25	1.14E-05
115.5	1.14E-05
115.75	7.63E-06
116	7.63E-06
116.25	1.14E-05
116.5	1.14E-05
116.75	1.14E-05
117	1.14E-05
117.25	7.63E-06
117.5	1.14E-05
117.75	1.14E-05
118	1.14E-05
118.25	7.63E-06
118.5	1.14E-05
118.75	7.63E-06
119	7.63E-06
119.25	7.63E-06
119.5	3.81E-06
119.75	7.63E-06
120	3.81E-06
120	1.14E-05
-63.9987	0.000236512
-63.7487	0.000232697
-63.4987	0.000228883
-63.2487	0.000221253
-62.9987	0.000217439
-62.7487	0.000213624
-62.4991	0.000205995
-62.2494	0.00020218
-61.9992	0.00019455
-61.7491	0.00019455
-61.4987	0.000198365
-61.2487	0.00019455
-60.9987	0.000186921
-60.7487	0.000183106
-60.4987	0.000179292
-60.2487	0.000183106
-59.9987	0.000183106
-59.7487	0.000179292
-59.4987	0.000179292
-59.2487	0.000175477
-58.9987	0.000175477
-58.7487	0.000179292
-58.4987	0.000175477
-58.2487	0.000179292
-57.9987	0.000179292
-57.7487	0.000175477
-57.4987	0.000175477
-57.2487	0.000175477
-56.9987	0.000179292
-56.7487	0.000171662
-56.4987	0.000175477
-56.2487	0.000171662
-55.9987	0.000171662
-55.7487	0.000175477
-55.4987	0.000171662
-55.2487	0.000179292
-54.9988	0.000167848
-54.7487	0.000175477
-54.4988	0.000175477
-54.2488	0.000175477
-53.9988	0.000171662
-53.7488	0.000171662
-53.4988	0.000179292
-53.2488	0.000175477
-52.9988	0.000171662
-52.7488	0.000175477
-52.4988	0.000175477
-52.2488	0.000171662
-51.9988	0.000175477
-51.7488	0.000171662
-51.4988	0.000171662
-51.2488	0.000171662
-50.9988	0.000175477
-50.7488	0.000179292
-50.4988	0.000179292
-50.2488	0.000179292
-49.9988	0.000183106
-49.7488	0.000179292
-49.4988	0.000183106
-49.2488	0.000179292
-48.9988	0.000183106
-48.7499	0.000183106
-48.4992	0.000183106
-48.2489	0.000183106
-47.9988	0.000183106
-47.7488	0.000183106
-47.4988	0.000183106
-47.2488	0.000183106
-46.9988	0.000183106
-46.7488	0.000183106
-46.4988	0.000183106
-46.2488	0.000186921
-45.9988	0.000186921
-45.7488	0.000183106
-45.4988	0.000190736
-45.2488	0.000186921
-44.9988	0.000186921
-44.7488	0.000183106
-44.4988	0.000186921
-44.2488	0.000186921
-43.9988	0.000186921
-43.7488	0.000186921
-43.4988	0.000186921
-43.2488	0.000186921
-42.9988	0.000186921
-42.7489	0.00019455
-42.4989	0.000186921
-42.2489	0.000186921
-41.9989	0.00019455
-41.7489	0.00019455
-41.4989	0.00019455
-41.2489	0.00019455
-40.9989	0.000198365
-40.7489	0.000198365
-40.4989	0.00019455
-40.2503	0.000198365
-40.0005	0.000198365
-39.7505	0.000198365
-39.499	0.000198365
-39.2489	0.000198365
-38.9989	0.00020218
-38.7489	0.000205995
-38.4989	0.000205995
-38.2489	0.000205995
-37.9989	0.000205995
-37.7489	0.000209809
-37.4989	0.000205995
-37.2489	0.000205995
-36.9989	0.000205995
-36.7489	0.000209809
-36.4989	0.000209809
-36.2489	0.000209809
-35.9989	0.000209809
-35.7489	0.000209809
-35.4989	0.000213624
-35.2489	0.000209809
-34.9989	0.000213624
-34.7489	0.000217439
-34.4989	0.000209809
-34.2489	0.000213624
-33.9989	0.000217439
-33.7489	0.000217439
-33.4991	0.000213624
-33.2491	0.000221253
-32.9994	0.000217439
-32.7494	0.000217439
-32.4989	0.000217439
-32.2489	0.000221253
-31.9989	0.000221253
-31.7489	0.000225068
-31.4989	0.000221253
-31.2489	0.000221253
-30.9989	0.000221253
-30.7489	0.000221253
-30.4989	0.000225068
-30.2489	0.000225068
-29.9989	0.000221253
-29.7489	0.000228883
-29.499	0.000228883
-29.2489	0.000225068
-28.999	0.000225068
-28.749	0.000228883
-28.499	0.000228883
-28.249	0.000228883
-27.999	0.000232697
-27.749	0.000228883
-27.499	0.000228883
-27.249	0.000228883
-26.999	0.000232697
-26.749	0.000232697
-26.499	0.000232697
-26.249	0.000236512
-25.999	0.000232697
-25.749	0.000228883
-25.499	0.000232697
-25.249	0.000236512
-24.999	0.000236512
-24.749	0.000236512
-24.499	0.000236512
-24.249	0.000236512
-23.999	0.000236512
-23.749	0.000236512
-23.499	0.000236512
-23.249	0.000236512
-22.999	0.000236512
-22.749	0.000236512
-22.499	0.000236512
-22.249	0.000240327
-21.9991	0.000236512
-21.749	0.000240327
-21.499	0.000240327
-21.249	0.000240327
-20.999	0.000236512
-20.749	0.000236512
-20.499	0.000240327
-20.249	0.000247957
-19.999	0.000244142
-19.749	0.000240327
-19.499	0.000240327
-19.249	0.000244142
-18.999	0.000244142
-18.749	0.000247957
-18.499	0.000247957
-18.249	0.000247957
-17.999	0.000247957
-17.749	0.000247957
-17.4991	0.000247957
-17.249	0.000247957
-16.9991	0.000247957
-16.749	0.000251772
-16.4991	0.000247957
-16.2491	0.000251772
-15.9991	0.000247957
-15.7491	0.000247957
-15.4991	0.000251772
-15.2491	0.000251772
-14.9991	0.000251772
-14.7491	0.000255587
-14.4991	0.000255587
-14.2491	0.000255587
-13.9991	0.000259401
-13.7491	0.000255587
-13.4991	0.000255587
-13.2491	0.000255587
-12.9991	0.000255587
-12.7491	0.000255587
-12.4991	0.000259401
-12.2491	0.000263216
-11.9991	0.000263216
-11.7491	0.000259401
-11.4991	0.000263216
-11.2491	0.000259401
-10.9991	0.000259401
-10.7491	0.000263216
-10.4991	0.000263216
-10.2491	0.000263216
-9.9991	0.000263216
-9.74911	0.000263216
-9.49911	0.000263216
-9.24911	0.000263216
-8.99911	0.000267031
-8.74911	0.000263216
-8.49912	0.000263216
-8.24911	0.000263216
-7.99912	0.000263216
-7.74911	0.000263216
-7.49912	0.000263216
-7.24913	0.000263216
-6.99913	0.000263216
-6.74913	0.000263216
-6.49913	0.000263216
-6.24914	0.000263216
-5.99913	0.000267031
-5.74923	0.000267031
-5.49918	0.000267031
-5.24914	0.000263216
-4.99915	0.000263216
-4.74915	0.000263216
-4.49915	0.000267031
-4.24915	0.000263216
-3.99915	0.000267031
-3.74915	0.000267031
-3.49915	0.000267031
-3.24916	0.000267031
-2.99916	0.000267031
-2.74917	0.000263216
-2.49916	0.000270845
-2.24917	0.000263216
-1.99916	0.000263216
-1.74917	0.000267031
-1.49917	0.000267031
-1.24918	0.000267031
-0.999176	0.000267031
-0.749176	0.000270845
-0.499184	0.000270845
-0.249176	0.000267031
-0.000274658	0.000267031
0.250778	0.000267031
0.500809	0.000267031
0.750816	0.000267031
1.00081	0.000267031
1.2508	0.000267031
1.50081	0.000267031
1.7508	0.000267031
2.0008	0.000267031
2.2508	0.000270845
2.5008	0.000270845
2.75079	0.000267031
3.00079	0.000267031
3.25079	0.000270845
3.50079	0.000270845
3.75079	0.000270845
4.00079	0.000267031
4.25079	0.000267031
4.50078	0.000270845
4.75079	0.00027466
5.00078	0.000270845
5.25077	0.000267031
5.50078	0.000267031
5.75077	0.000270845
6.00077	0.00027466
6.25076	0.000278475
6.50077	0.000270845
6.75076	0.000270845
7.00077	0.00027466
7.25076	0.000278475
7.50076	0.000278475
7.75076	0.00027466
8.00076	0.00027466
8.25076	0.00027466
8.50075	0.00027466
8.75076	0.000278475
9.00075	0.000270845
9.25074	0.00027466
9.50075	0.00027466
9.75074	0.00027466
10.0007	0.000282289
10.2507	0.00027466
10.5007	0.00027466
10.7507	0.00027466
11.0007	0.000278475
11.2507	0.00027466
11.5007	0.00027466
11.7507	0.000278475
12.0007	0.000270845
12.2507	0.00027466
12.5007	0.000270845
12.7507	0.00027466
13.0005	0.00027466
13.2504	0.000270845
13.5007	0.000270845
13.7507	0.000270845
14.0001	0.00027466
14.2505	0.000270845
14.5	0.000270845
14.7495	0.00027466
15.0007	0.000267031
15.2507	0.000270845
15.5007	0.000270845
15.7507	0.000270845
16.0007	0.000267031
16.2507	0.000270845
16.5007	0.000270845
16.7507	0.000270845
17.0007	0.00027466
17.2507	0.000267031
17.5007	0.000267031
17.7507	0.000278475
18.0007	0.000267031
18.2507	0.000270845
18.5007	0.000267031
18.7507	0.000270845
19.0007	0.000270845
19.2507	0.00027466
19.5007	0.000270845
19.7507	0.000270845
20.0007	0.000270845
20.2507	0.000270845
20.5007	0.00027466
20.7507	0.000270845
21.0006	0.000267031
21.2506	0.000270845
21.5006	0.000270845
21.7506	0.000267031
22.0006	0.000267031
22.2506	0.000270845
22.5006	0.000270845
22.7506	0.000270845
23.0006	0.000270845
23.2501	0.000270845
23.5006	0.00027466
23.7506	0.000270845
24.0006	0.000270845
24.2506	0.000270845
24.5006	0.000270845
24.7506	0.00027466
25.0006	0.00027466
25.2506	0.000267031
25.5006	0.000267031
25.7506	0.00027466
26.0006	0.00027466
26.2506	0.000278475
26.5006	0.00027466
26.7506	0.000270845
27.0006	0.000270845
27.2506	0.00027466
27.5006	0.00027466
27.7506	0.00027466
27.9997	0.00027466
28.2506	0.000278475
28.5006	0.000278475
28.7506	0.000278475
29.0006	0.00027466
29.2506	0.00027466
29.5006	0.000278475
29.7506	0.00027466
30.0006	0.000278475
30.2506	0.000278475
30.5006	0.000278475
30.7506	0.000278475
31.0006	0.000278475
31.2506	0.000282289
31.5006	0.00027466
31.7506	0.000278475
32.0006	0.000278475
32.2506	0.000282289
32.5006	0.000278475
32.7506	0.000278475
33.0006	0.000278475
33.2506	0.000282289
33.5006	0.000278475
33.7506	0.000282289
34.0005	0.000282289
34.2505	0.000286104
34.5005	0.000282289
34.7505	0.000282289
35.0005	0.000286104
35.2505	0.000286104
35.5005	0.000282289
35.7495	0.000282289
36.0005	0.000286104
36.2505	0.000286104
36.5005	0.000286104
36.7505	0.000286104
37.0005	0.000282289
37.2505	0.000286104
37.5005	0.000286104
37.7505	0.000286104
38.0005	0.000289919
38.2505	0.000286104
38.5005	0.000289919
38.7505	0.000289919
39.0005	0.000289919
39.2505	0.000289919
39.5005	0.000289919
39.7505	0.000289919
40.0005	0.000289919
40.2505	0.000289919
40.5005	0.000289919
40.7505	0.000289919
41.0005	0.000289919
41.2505	0.000297548
41.5005	0.000297548
41.7505	0.000297548
42.0005	0.000297548
42.2505	0.000301363
42.5005	0.000297548
42.7502	0.000297548
43.0003	0.000297548
43.2505	0.000297548
43.5005	0.000301363
43.7505	0.000297548
44.0005	0.000297548
44.2505	0.000301363
44.5005	0.000297548
44.7505	0.000301363
45.0005	0.000301363
45.2505	0.000301363
45.5005	0.000305178
45.7505	0.000301363
46.0005	0.000305178
46.2505	0.000308992
46.5005	0.000312807
46.7505	0.000312807
47.0005	0.000312807
47.25	0.000312807
47.5002	0.000308992
47.75	0.000312807
47.999	0.000316622
48.249	0.000316622
48.5004	0.000316622
48.7504	0.000316622
49.0004	0.000316622
49.2504	0.000316622
49.5004	0.000316622
49.7504	0.000316622
50.0004	0.000320436
50.2504	0.000320436
50.5004	0.000324251
50.7504	0.000324251
51.0004	0.000324251
51.2504	0.000328066
51.5004	0.000331881
51.7504	0.000331881
52.0004	0.00033951
52.2504	0.00033951
52.5004	0.000343325
52.7504	0.000343325
53.0004	0.000343325
53.2504	0.00033951
53.5004	0.000343325
53.7504	0.000347139
54.0004	0.000354769
54.2504	0.000354769
54.5004	0.000358583
54.7504	0.000358583
55.0004	0.000362398
55.2504	0.000366213
55.5004	0.000366213
55.7504	0.000366213
56.0004	0.000366213
56.2504	0.000370027
56.5004	0.000377657
56.7504	0.000381472
57.0004	0.000385286
57.2504	0.000381472
57.5004	0.000389101
57.7504	0.000392916
58.0004	0.000392916
58.2504	0.000392916
58.5004	0.000400545
58.7504	0.000400545
59.0004	0.000408174
59.2504	0.000415804
59.5004	0.000419619
59.7504	0.000419619
60.0004	0.000423433
60.2503	0.000431063
60.5003	0.000442507
60.7503	0.000446321
61.0003	0.000446321
61.2503	0.000446321
61.5003	0.000446321
61.7503	0.000446321
62.0003	0.000446321
62.2503	0.000457766
62.5003	0.00046921
62.7503	0.000480654
63.0003	0.000488285
63.2503	0.000495914
63.5003	0.000499729
63.7503	0.000499729
64.0003	0.000507358
64.2503	0.000511173
64.5003	0.000514988
64.7503	0.000526432
65.0003	0.000541691
65.2503	0.000537876
65.5003	0.000545505
65.7503	0.00054932
66.0003	0.000560764
66.2503	0.000568394
66.5003	0.000583652
66.7503	0.000587467
67.0003	0.000598911
67.2503	0.000606541
67.5003	0.00061417
67.7503	0.000625614
68.0003	0.000633243
68.2503	0.000644688
68.5003	0.000640873
68.7503	0.000663761
69.0003	0.00067139
69.2503	0.000659946
69.5003	0.000663761
69.7503	0.000682835
70.0003	0.000709537
70.2503	0.000720982
70.5003	0.000732426
70.7503	0.000755314
71.0003	0.000762943
71.2503	0.000778202
71.5	0.000785831
71.7503	0.000789646
72.0003	0.000797275
72.2503	0.000816349
72.5003	0.000823978
72.7503	0.000827793
73.0002	0.000835422
73.2502	0.000831608
73.5002	0.000850681
73.7502	0.000873569
74.0002	0.000892643
74.2502	0.000900272
74.5002	0.000907902
74.7502	0.000919346
75.0002	0.000942234
75.2502	0.000938419
75.5002	0.000911716
75.7502	0.000919346
76.0002	0.000942234
76.2502	0.000949863
76.5002	0.000957493
76.7502	0.000972752
77.0002	0.00101472
77.2502	0.00103379
77.5002	0.00105668
77.7502	0.00101853
78.0002	0.000999458
78.2502	0.00097657
78.5002	0.000984199
78.7502	0.000968937
79.0002	0.000995643
79.2502	0.0010109
79.4995	0.00100709
79.7502	0.00100709
80.0002	0.00102235
80.2502	0.00101853
80.5002	0.00102235
80.7502	0.00102235
81.0002	0.00100327
81.2502	0.000968937
81.5002	0.000949863
81.7502	0.000946049
82.0002	0.00092316
82.2502	0.000911716
82.5002	0.000907902
82.7502	0.00093079
82.9999	0.000854496
83.2499	0.000709537
83.4997	0.000526432
83.7497	0.000335695
83.9995	0.000183106
84.2502	9.92E-05
84.5002	7.63E-05
84.7502	6.49E-05
85.0002	6.49E-05
85.2502	5.72E-05
85.5002	6.10E-05
85.7502	5.72E-05
86.0001	5.34E-05
86.2501	5.72E-05
86.5001	4.96E-05
86.7501	5.34E-05
87.0001	5.34E-05
87.2501	4.96E-05
87.5001	5.34E-05
87.7501	5.34E-05
88.0001	5.34E-05
88.2493	5.72E-05
88.4993	5.72E-05
88.7501	6.10E-05
89.0001	6.49E-05
89.2501	6.87E-05
89.5001	7.25E-05
89.7501	8.01E-05
90.0001	8.77E-05
90.2501	9.16E-05
90.5001	0.000102997
90.7501	0.000106812
91.0001	0.000106812
91.2501	0.000114441
91.5001	0.000122071
91.7501	0.000129701
92.0001	0.000133515
92.2501	0.000141145
92.5001	0.000156404
92.7501	0.000156404
93.0001	0.000156404
93.2501	0.000152589
93.5001	0.000156404
93.7501	0.000152589
94.0001	0.000160218
94.2501	0.000164033
94.5001	0.000171662
94.7501	0.000179292
95.0001	0.000190736
95.2501	0.000209809
95.5001	0.000221253
95.7501	0.000236512
96.0001	0.000244142
96.2499	0.000259401
96.5001	0.000267031
96.7501	0.000282289
97.0001	0.000293734
97.2501	0.000316622
97.5001	0.000320436
97.7501	0.000301363
98.0001	0.000263216
98.2501	0.000183106
98.5001	0.000102997
98.75	4.58E-05
99	1.91E-05
99.25	1.14E-05
99.5	1.14E-05
99.75	7.63E-06
100	0
100.25	3.81E-06
100.5	7.63E-06
100.75	7.63E-06
101	7.63E-06
101.25	3.81E-06
101.5	7.63E-06
101.75	7.63E-06
102	1.14E-05
102.25	1.14E-05
102.5	3.81E-06
102.75	7.63E-06
103	7.63E-06
103.25	1.14E-05
103.5	1.14E-05
103.75	7.63E-06
104	3.81E-06
104.25	1.14E-05
104.5	1.14E-05
104.75	7.63E-06
105	7.63E-06
105	7.63E-06
