Photodiode Viewing Angle (Degrees) - Plot 0	Lock-in Signal Amplitude (V) - Plot 0
-18.9987	8.55E-05
-18.7487	8.57E-05
-18.4987	8.64E-05
-18.2487	8.17E-05
-17.9987	7.75E-05
-17.7487	7.90E-05
-17.4987	7.93E-05
-17.2487	7.98E-05
-16.9987	7.64E-05
-16.7487	7.58E-05
-16.4987	7.58E-05
-16.2487	7.74E-05
-15.9987	7.62E-05
-15.7487	7.37E-05
-15.4987	7.39E-05
-15.2487	7.38E-05
-14.9987	6.98E-05
-14.7487	6.78E-05
-14.4987	6.58E-05
-14.2487	6.84E-05
-13.9987	6.56E-05
-13.7487	6.84E-05
-13.4987	6.46E-05
-13.2487	6.29E-05
-12.9987	6.22E-05
-12.7487	6.17E-05
-12.4987	6.12E-05
-12.249	6.08E-05
-11.9989	5.93E-05
-11.7487	6.47E-05
-11.4987	5.91E-05
-11.2487	5.97E-05
-10.9987	5.97E-05
-10.7487	5.85E-05
-10.4987	5.66E-05
-10.2487	5.73E-05
-9.99876	5.72E-05
-9.74875	5.87E-05
-9.49876	5.64E-05
-9.24876	5.67E-05
-8.99876	5.71E-05
-8.74876	5.82E-05
-8.49876	5.81E-05
-8.24878	5.52E-05
-7.99876	5.72E-05
-7.74878	5.91E-05
-7.49878	5.53E-05
-7.24878	5.67E-05
-6.99878	5.61E-05
-6.74878	5.75E-05
-6.49878	5.85E-05
-6.24878	5.73E-05
-5.99982	5.88E-05
-5.75035	5.61E-05
-5.50018	5.73E-05
-5.24879	5.73E-05
-4.99879	5.97E-05
-4.74879	5.65E-05
-4.49879	5.66E-05
-4.24879	5.32E-05
-3.99879	5.61E-05
-3.74881	5.79E-05
-3.49881	5.72E-05
-3.24881	5.51E-05
-2.99881	5.45E-05
-2.74881	5.75E-05
-2.49922	5.50E-05
-2.24881	5.51E-05
-1.99883	5.32E-05
-1.74883	5.63E-05
-1.49883	5.45E-05
-1.24883	5.01E-05
-0.998825	5.00E-05
-0.748825	5.53E-05
-0.498825	5.42E-05
-0.248825	5.41E-05
0.00117493	5.48E-05
0.25116	5.51E-05
0.50116	5.56E-05
0.75116	5.28E-05
1.00116	5.56E-05
1.25116	5.29E-05
1.50116	5.20E-05
1.75116	5.09E-05
2.00116	5.37E-05
2.25114	5.32E-05
2.50114	5.00E-05
2.75114	4.87E-05
3.00114	4.89E-05
3.25114	5.17E-05
3.50114	5.22E-05
3.75114	5.15E-05
4.00113	4.99E-05
4.25113	5.11E-05
4.50113	5.47E-05
4.75113	5.31E-05
5.00113	5.23E-05
5.25113	5.44E-05
5.50113	5.25E-05
5.75111	5.39E-05
6.00113	5.35E-05
6.25111	5.10E-05
6.50111	5.16E-05
6.75111	5.38E-05
7.00111	5.05E-05
7.25111	5.20E-05
7.50111	5.30E-05
7.75111	5.37E-05
7.99966	5.22E-05
8.24957	4.97E-05
8.5011	5.30E-05
8.7511	5.29E-05
9.0011	5.33E-05
9.2511	5.28E-05
9.5011	5.07E-05
9.75108	5.19E-05
10.0011	5.29E-05
10.2511	5.05E-05
10.5011	5.41E-05
10.7511	5.11E-05
11.0011	5.09E-05
11.2511	5.35E-05
11.5011	5.58E-05
11.7511	5.10E-05
12.0011	5.23E-05
12.2511	5.15E-05
12.5011	5.33E-05
12.7511	5.30E-05
13.0011	5.29E-05
13.2511	5.05E-05
13.5011	5.21E-05
13.7511	5.22E-05
14.0011	5.19E-05
14.2511	5.27E-05
14.5011	5.41E-05
14.7511	5.16E-05
15.0011	5.33E-05
15.2511	5.19E-05
15.501	5.89E-05
15.7509	5.33E-05
16.001	5.58E-05
16.251	5.57E-05
16.501	5.67E-05
16.751	5.53E-05
17.001	5.55E-05
17.251	5.49E-05
17.501	5.50E-05
17.751	5.52E-05
18.001	5.50E-05
18.251	5.48E-05
18.501	5.35E-05
18.751	5.51E-05
19.001	5.64E-05
19.251	6.00E-05
19.501	5.58E-05
19.751	5.89E-05
20.001	5.78E-05
20.251	5.80E-05
20.501	5.50E-05
20.751	5.54E-05
21.001	5.70E-05
21.251	5.80E-05
21.501	5.90E-05
21.751	6.13E-05
22.001	6.09E-05
22.2507	5.95E-05
22.501	5.78E-05
22.751	5.66E-05
23.001	6.18E-05
23.251	6.54E-05
23.501	6.34E-05
23.751	6.14E-05
24.001	6.59E-05
24.251	6.06E-05
24.501	6.12E-05
24.751	6.18E-05
25.001	6.35E-05
25.251	6.35E-05
25.501	6.29E-05
25.7509	6.49E-05
26.001	6.37E-05
26.251	6.38E-05
26.501	6.69E-05
26.751	6.34E-05
27.001	6.84E-05
27.251	7.16E-05
27.5009	6.81E-05
27.751	6.94E-05
28.0009	6.63E-05
28.2496	6.56E-05
28.4992	6.99E-05
28.7509	6.80E-05
29.0009	6.91E-05
29.2509	6.91E-05
29.5009	6.66E-05
29.7509	6.42E-05
30.0009	6.40E-05
30.2509	6.84E-05
30.5009	6.50E-05
30.7509	6.65E-05
31.0009	7.03E-05
31.2509	6.49E-05
31.5009	6.64E-05
31.7509	7.02E-05
32.0009	6.60E-05
32.2509	6.80E-05
32.5009	6.75E-05
32.7509	7.05E-05
33.0009	6.44E-05
33.2509	6.59E-05
33.5009	6.51E-05
33.7509	6.62E-05
34.0009	6.45E-05
34.2509	6.32E-05
34.5009	6.28E-05
34.7509	6.21E-05
35.0009	5.95E-05
35.2509	6.27E-05
35.5009	6.15E-05
35.7509	6.41E-05
36.0009	6.49E-05
36.2509	6.19E-05
36.5009	6.12E-05
36.7509	5.87E-05
37.0009	5.73E-05
37.2509	5.81E-05
37.5009	5.94E-05
37.7509	5.76E-05
38.0009	5.62E-05
38.2509	5.25E-05
38.5009	5.47E-05
38.7509	5.67E-05
39.0009	5.38E-05
39.2509	5.52E-05
39.5009	5.62E-05
39.7509	5.72E-05
40.0009	5.16E-05
40.2509	5.19E-05
40.5008	5.41E-05
40.7509	5.21E-05
41.0008	4.86E-05
41.2508	4.76E-05
41.5008	4.52E-05
41.7508	4.80E-05
42.0008	4.60E-05
42.2508	4.52E-05
42.5008	4.45E-05
42.7508	4.85E-05
43.0008	4.52E-05
43.2508	4.27E-05
43.5008	4.34E-05
43.7508	4.19E-05
43.9999	4.15E-05
44.2495	4.20E-05
44.4993	3.77E-05
44.7508	3.83E-05
45.0008	3.96E-05
45.2508	3.89E-05
45.5008	3.70E-05
45.7508	3.75E-05
46.0008	3.76E-05
46.2508	3.53E-05
46.5008	3.78E-05
46.7508	3.50E-05
47.0008	3.56E-05
47.2508	3.17E-05
47.5008	3.19E-05
47.7508	3.49E-05
48.0007	3.18E-05
48.2508	3.01E-05
48.5008	3.28E-05
48.7508	3.73E-05
49.0008	3.15E-05
49.2508	3.40E-05
49.5008	3.11E-05
49.7508	3.19E-05
50.0008	2.85E-05
50.2508	2.83E-05
50.5008	2.59E-05
50.7508	2.87E-05
51.0008	3.02E-05
51.2508	3.22E-05
51.5007	2.80E-05
51.7508	2.92E-05
52.0008	2.44E-05
52.2508	2.59E-05
52.5008	2.63E-05
52.7508	2.42E-05
53.0008	2.68E-05
53.2508	2.46E-05
53.5007	2.37E-05
53.7508	2.19E-05
54.0007	2.10E-05
54.249	2.30E-05
54.4988	2.36E-05
54.7488	2.07E-05
55.0007	2.18E-05
55.2507	2.22E-05
55.5007	2.09E-05
55.7507	2.06E-05
56.0007	2.18E-05
56.2507	2.25E-05
56.5007	1.79E-05
56.7507	2.26E-05
57.0007	1.69E-05
57.2507	1.91E-05
57.5007	1.98E-05
57.7507	1.90E-05
58.0007	1.94E-05
58.2507	1.65E-05
58.5007	2.14E-05
58.7507	1.66E-05
59.0007	1.96E-05
59.2507	1.62E-05
59.5007	1.71E-05
59.7507	1.65E-05
60.0007	1.81E-05
60.2507	1.64E-05
60.4984	1.59E-05
60.7507	1.35E-05
61.0007	1.85E-05
61.2507	1.82E-05
61.5007	1.23E-05
61.7507	1.35E-05
62.0007	1.36E-05
62.2507	1.57E-05
62.5007	1.26E-05
62.7507	1.44E-05
63.0007	1.39E-05
63.2507	1.42E-05
63.5007	1.48E-05
63.7507	1.47E-05
64.0007	1.27E-05
64.2507	1.45E-05
64.4997	1.38E-05
64.7491	1.10E-05
65.0007	1.31E-05
65.2507	1.16E-05
65.5007	1.36E-05
65.7507	1.02E-05
66.0006	1.20E-05
66.2506	1.08E-05
66.5006	1.07E-05
66.7506	1.25E-05
67.0006	1.25E-05
67.2506	1.56E-05
67.5006	1.26E-05
67.7506	1.34E-05
68.0006	1.03E-05
68.2506	1.17E-05
68.5006	1.38E-05
68.7506	1.40E-05
69.0006	1.44E-05
69.2506	1.29E-05
69.5006	1.28E-05
69.7506	1.12E-05
70.0006	1.47E-05
70.2506	1.25E-05
70.5006	1.26E-05
70.7506	1.20E-05
71.0005	1.38E-05
71.2506	1.14E-05
71.5006	1.22E-05
71.7506	1.28E-05
72.0006	1.60E-05
72.2506	1.39E-05
72.5006	1.37E-05
72.7506	1.62E-05
73.0006	1.35E-05
73.2505	1.51E-05
73.5006	1.59E-05
73.7506	1.76E-05
74.0006	9.24E-06
74.2506	1.61E-05
74.5006	1.38E-05
74.7506	1.74E-05
75.0006	1.88E-05
75.2506	1.64E-05
75.5006	1.75E-05
75.7506	1.32E-05
76.0006	1.76E-05
76.2506	1.57E-05
76.5006	1.73E-05
76.7505	1.47E-05
77.0006	1.52E-05
77.2506	1.78E-05
77.5006	1.50E-05
77.7506	1.78E-05
78.0006	1.69E-05
78.2506	1.98E-05
78.5006	1.54E-05
78.7506	1.72E-05
79.0005	1.61E-05
79.2505	1.60E-05
79.5005	1.88E-05
79.7483	1.64E-05
80.0005	1.61E-05
80.2505	1.60E-05
80.5005	1.84E-05
80.7505	1.69E-05
81.0005	1.70E-05
81.2505	2.26E-05
81.5005	1.86E-05
81.7505	1.79E-05
82.0005	2.06E-05
82.2505	2.05E-05
82.5005	2.18E-05
82.7505	1.96E-05
83.0005	1.88E-05
83.2505	1.87E-05
83.5005	2.21E-05
83.7505	2.19E-05
84.0005	2.13E-05
84.2505	2.00E-05
84.5005	2.11E-05
84.7505	2.49E-05
85.0005	2.34E-05
85.2505	2.34E-05
85.5005	2.09E-05
85.7505	2.37E-05
86.0005	2.51E-05
86.2505	2.59E-05
86.5005	2.41E-05
86.7505	2.16E-05
87.0005	2.30E-05
87.2505	2.52E-05
87.5005	2.48E-05
87.7505	2.38E-05
88.0005	2.77E-05
88.2505	2.53E-05
88.5005	2.18E-05
88.7496	2.59E-05
88.9993	2.31E-05
89.2491	2.47E-05
89.4992	2.19E-05
89.7505	2.35E-05
90.0005	2.43E-05
90.2505	2.47E-05
90.5005	2.26E-05
90.7505	2.32E-05
91.0005	2.09E-05
91.2505	2.21E-05
91.5005	2.63E-05
91.7505	2.44E-05
92.0005	2.35E-05
92.2505	2.50E-05
92.5005	2.44E-05
92.7504	2.44E-05
93.0004	2.51E-05
93.2504	2.28E-05
93.5004	2.38E-05
93.7504	2.09E-05
94.0004	2.37E-05
94.2504	2.32E-05
94.5004	2.23E-05
94.7504	2.35E-05
95.0004	2.45E-05
95.2504	2.21E-05
95.5004	2.06E-05
95.7504	2.02E-05
96.0004	2.18E-05
96.2504	2.10E-05
96.5004	2.26E-05
96.7504	2.26E-05
97.0004	1.94E-05
97.2504	1.88E-05
97.5004	2.22E-05
97.7504	2.06E-05
98.0004	2.21E-05
98.2504	2.14E-05
98.5004	2.06E-05
98.7504	1.90E-05
99.0004	1.86E-05
99.2504	1.85E-05
99.5004	1.89E-05
99.7504	1.96E-05
100	1.99E-05
100.25	2.01E-05
100.5	2.15E-05
100.75	2.29E-05
101	1.84E-05
101.25	1.76E-05
101.5	1.72E-05
101.75	1.80E-05
102	1.68E-05
102.25	1.70E-05
102.5	1.73E-05
102.75	1.96E-05
103	2.03E-05
103.25	1.57E-05
103.5	1.88E-05
103.75	1.82E-05
104	1.57E-05
104.25	1.61E-05
104.5	1.65E-05
104.75	1.39E-05
105	1.75E-05
105.25	1.45E-05
105.5	1.39E-05
105.75	1.46E-05
106	1.72E-05
106.25	1.25E-05
106.5	1.36E-05
106.75	1.27E-05
107	1.48E-05
107.25	1.50E-05
107.5	1.50E-05
107.75	1.11E-05
108	1.44E-05
108.25	1.23E-05
108.5	1.26E-05
108.75	6.74E-06
109	1.14E-05
109.25	1.40E-05
109.5	7.75E-06
109.75	9.24E-06
110	1.01E-05
110.25	1.06E-05
110.5	1.08E-05
110.75	1.03E-05
111	1.27E-05
111.25	9.72E-06
111.5	1.17E-05
111.75	1.13E-05
112	1.02E-05
112.25	7.99E-06
112.5	8.52E-06
112.75	7.69E-06
113	8.76E-06
113.25	1.33E-05
113.5	1.36E-05
113.75	1.13E-05
114	9.36E-06
114.25	1.10E-05
114.5	1.01E-05
114.75	8.46E-06
115	9.42E-06
115.25	1.08E-05
115.5	1.01E-05
115.75	8.29E-06
116	1.13E-05
116.25	7.15E-06
116.5	5.48E-06
116.75	8.82E-06
117	8.52E-06
117.25	7.09E-06
117.5	6.08E-06
117.75	9.30E-06
118	6.14E-06
118.25	6.91E-06
118.5	1.11E-05
118.75	7.15E-06
119	6.44E-06
119.25	7.09E-06
119.5	5.72E-06
119.75	7.15E-06
120	5.19E-06
120.25	3.46E-06
120.5	9.78E-06
120.75	7.39E-06
121	1.08E-05
121.25	9.48E-06
121.5	8.34E-06
121.75	1.17E-05
122	1.01E-05
122.25	6.79E-06
122.5	9.42E-06
122.75	8.64E-06
123	8.88E-06
123.25	5.90E-06
123.5	8.05E-06
123.75	9.30E-06
124	9.54E-06
124.25	1.08E-05
124.5	1.00E-05
124.75	7.99E-06
125	1.11E-05
125.25	1.04E-05
125.5	6.50E-06
125.75	9.30E-06
126	9.36E-06
126.249	1.56E-05
126.5	1.38E-05
126.748	1.16E-05
127	1.20E-05
127.25	9.30E-06
127.5	1.39E-05
127.75	1.03E-05
128	1.35E-05
128.25	1.13E-05
128.5	9.54E-06
128.75	5.78E-06
129	2.09E-06
129.25	1.51E-05
129.5	1.33E-05
129.75	1.29E-05
130	1.08E-05
130.25	1.41E-05
130.5	1.20E-05
130.75	1.28E-05
131	1.28E-05
131.25	1.53E-05
131.5	1.10E-05
131.75	9.78E-06
132	1.20E-05
132.25	7.69E-06
132.5	1.34E-05
132.75	1.25E-05
133	1.08E-05
133.25	1.34E-05
133.5	1.37E-05
133.75	1.30E-05
134	1.57E-05
134.25	1.41E-05
134.5	1.39E-05
134.75	1.49E-05
135	1.39E-05
135.25	1.41E-05
135.5	1.14E-05
135.75	1.58E-05
136	1.56E-05
136.25	1.64E-05
136.5	1.58E-05
136.75	1.76E-05
137	1.48E-05
137.249	1.77E-05
137.5	1.88E-05
137.748	1.88E-05
138	1.52E-05
138.25	1.98E-05
138.5	1.94E-05
138.75	1.54E-05
139	1.81E-05
139.25	1.67E-05
139.5	2.06E-05
139.75	1.44E-05
140	1.60E-05
140.25	1.17E-05
140.5	1.57E-05
140.75	1.25E-05
141	1.65E-05
141.25	1.82E-05
141.5	1.65E-05
141.75	1.70E-05
142	1.73E-05
142.25	1.55E-05
142.5	1.71E-05
142.75	1.58E-05
143	1.87E-05
143.25	1.88E-05
143.5	1.75E-05
143.75	1.67E-05
144	1.51E-05
144.25	1.52E-05
144.5	1.78E-05
144.75	1.50E-05
145	1.62E-05
145.25	1.57E-05
145.5	1.62E-05
145.749	1.78E-05
146	1.96E-05
146.25	1.78E-05
146.5	1.84E-05
146.75	1.90E-05
147	1.87E-05
147.25	2.28E-05
147.5	1.70E-05
147.75	2.21E-05
148	1.91E-05
148.25	1.65E-05
148.5	1.55E-05
148.75	1.88E-05
149	1.74E-05
149.25	1.47E-05
149.5	1.34E-05
149.75	1.58E-05
150	1.60E-05
150	1.57E-05
-34.9987	7.81E-05
-34.7487	7.68E-05
-34.4987	7.56E-05
-34.2487	7.28E-05
-33.9987	7.03E-05
-33.7487	7.25E-05
-33.4987	7.02E-05
-33.2487	6.94E-05
-32.9987	6.66E-05
-32.7487	6.96E-05
-32.4987	6.93E-05
-32.2487	6.62E-05
-31.9987	6.71E-05
-31.7487	6.62E-05
-31.4987	6.40E-05
-31.2487	6.68E-05
-30.9987	6.09E-05
-30.7487	6.17E-05
-30.4987	5.73E-05
-30.2487	6.02E-05
-29.9987	5.65E-05
-29.7487	5.87E-05
-29.4987	5.89E-05
-29.2487	5.60E-05
-28.9987	5.66E-05
-28.7487	5.42E-05
-28.5003	5.66E-05
-28.2496	5.41E-05
-27.9987	5.56E-05
-27.7487	5.36E-05
-27.4987	5.19E-05
-27.2487	5.19E-05
-26.9987	5.32E-05
-26.7487	5.23E-05
-26.4987	5.16E-05
-26.2487	5.14E-05
-25.9988	5.14E-05
-25.7487	4.90E-05
-25.4988	5.11E-05
-25.2488	4.91E-05
-24.9988	4.92E-05
-24.7488	4.83E-05
-24.4988	5.26E-05
-24.2493	4.94E-05
-23.9988	5.11E-05
-23.7488	4.86E-05
-23.4988	4.91E-05
-23.2488	5.08E-05
-22.9988	4.76E-05
-22.7488	5.05E-05
-22.4988	5.13E-05
-22.2488	5.29E-05
-21.9988	4.79E-05
-21.7488	4.91E-05
-21.4988	4.96E-05
-21.2488	5.10E-05
-20.9988	4.81E-05
-20.7488	5.04E-05
-20.4988	4.88E-05
-20.2488	4.76E-05
-19.9988	4.86E-05
-19.7488	4.73E-05
-19.4992	4.84E-05
-19.2491	5.11E-05
-18.9997	5.08E-05
-18.7492	4.99E-05
-18.4988	4.71E-05
-18.2488	4.93E-05
-17.9988	4.96E-05
-17.7488	4.79E-05
-17.4988	4.96E-05
-17.2488	4.77E-05
-16.9988	4.94E-05
-16.7488	4.83E-05
-16.4988	4.92E-05
-16.2488	4.86E-05
-15.9988	4.81E-05
-15.7488	4.75E-05
-15.4988	5.10E-05
-15.2488	4.52E-05
-14.9988	4.88E-05
-14.7488	4.91E-05
-14.4988	4.95E-05
-14.2488	4.76E-05
-13.9988	4.88E-05
-13.7489	4.82E-05
-13.4989	4.77E-05
-13.2489	4.63E-05
-12.9989	4.83E-05
-12.7489	4.90E-05
-12.4989	4.93E-05
-12.25	4.58E-05
-11.9989	4.52E-05
-11.7489	4.74E-05
-11.4989	4.68E-05
-11.2489	4.92E-05
-10.9989	4.90E-05
-10.7489	4.48E-05
-10.4989	4.89E-05
-10.2489	4.66E-05
-9.99887	4.83E-05
-9.74889	4.64E-05
-9.49889	4.66E-05
-9.24889	4.77E-05
-8.99889	4.99E-05
-8.74889	4.61E-05
-8.49889	4.69E-05
-8.24889	5.01E-05
-7.9989	5.00E-05
-7.74889	5.15E-05
-7.49979	4.85E-05
-7.2489	4.85E-05
-6.9989	4.79E-05
-6.7489	4.85E-05
-6.4989	4.55E-05
-6.24892	4.74E-05
-5.9989	4.82E-05
-5.74892	4.74E-05
-5.49892	4.82E-05
-5.24892	4.77E-05
-4.99892	4.82E-05
-4.74892	4.99E-05
-4.49893	4.51E-05
-4.24892	4.82E-05
-3.99893	5.04E-05
-3.74892	4.71E-05
-3.49893	5.08E-05
-3.24893	4.77E-05
-2.99893	4.85E-05
-2.74893	4.73E-05
-2.49893	4.57E-05
-2.24895	4.41E-05
-1.99893	4.71E-05
-1.74895	4.64E-05
-1.49895	4.65E-05
-1.24895	4.58E-05
-0.998947	4.59E-05
-0.748947	4.88E-05
-0.498962	4.97E-05
-0.248947	4.95E-05
0.0010376	4.63E-05
0.251038	4.60E-05
0.501038	4.83E-05
0.751038	4.60E-05
1.00104	4.77E-05
1.25102	4.86E-05
1.50104	4.32E-05
1.75102	4.79E-05
2.00104	4.82E-05
2.25102	4.75E-05
2.50102	4.81E-05
2.75102	4.49E-05
3.00102	4.57E-05
3.25102	4.42E-05
3.50101	4.65E-05
3.75102	4.66E-05
4.00101	4.70E-05
4.25101	4.40E-05
4.50101	4.67E-05
4.75101	4.20E-05
5.00101	4.52E-05
5.25099	4.79E-05
5.50101	4.75E-05
5.75099	4.51E-05
6.001	4.40E-05
6.25099	4.48E-05
6.501	4.81E-05
6.75099	4.57E-05
7.00098	4.02E-05
7.25098	4.97E-05
7.50098	4.73E-05
7.75098	4.89E-05
8.00098	4.49E-05
8.25098	4.57E-05
8.50098	4.43E-05
8.75098	4.38E-05
9.00098	4.64E-05
9.25097	4.42E-05
9.50097	4.76E-05
9.75096	4.60E-05
10.001	4.43E-05
10.251	4.61E-05
10.501	4.63E-05
10.751	4.33E-05
11.001	4.71E-05
11.251	4.71E-05
11.5009	4.84E-05
11.751	4.77E-05
12.0009	4.89E-05
12.251	4.49E-05
12.5009	4.59E-05
12.7499	4.55E-05
12.9999	4.46E-05
13.2509	4.31E-05
13.5009	4.09E-05
13.7509	4.23E-05
14.0009	4.42E-05
14.2509	4.38E-05
14.5009	4.42E-05
14.7509	4.18E-05
15.0009	3.94E-05
15.2509	4.68E-05
15.5009	4.27E-05
15.7509	4.40E-05
16.0009	4.15E-05
16.2509	4.49E-05
16.5009	4.61E-05
16.7509	4.29E-05
17.0009	4.54E-05
17.2509	4.42E-05
17.5009	4.02E-05
17.7509	4.24E-05
18.0009	4.37E-05
18.2509	4.23E-05
18.5009	4.22E-05
18.7509	4.52E-05
19.0009	4.32E-05
19.2509	4.13E-05
19.5009	4.11E-05
19.7509	4.09E-05
20.0009	4.43E-05
20.2509	4.75E-05
20.5009	4.31E-05
20.7509	4.40E-05
21.0009	4.48E-05
21.2506	4.38E-05
21.5006	4.38E-05
21.7505	4.50E-05
22.0002	4.59E-05
22.2501	4.18E-05
22.5005	4.45E-05
22.7506	4.20E-05
23.0004	4.39E-05
23.2501	4.26E-05
23.4998	4.35E-05
23.75	4.24E-05
24.0009	4.57E-05
24.2509	4.33E-05
24.5008	4.58E-05
24.7509	4.34E-05
25.0008	4.11E-05
25.2508	4.68E-05
25.5008	4.24E-05
25.7508	4.40E-05
26.0008	4.36E-05
26.2508	4.54E-05
26.5008	4.38E-05
26.7508	4.39E-05
27.0008	4.62E-05
27.2508	4.50E-05
27.5008	4.63E-05
27.7508	4.67E-05
28.0008	4.68E-05
28.2508	4.33E-05
28.5008	4.64E-05
28.7508	5.01E-05
29.0008	4.70E-05
29.2508	4.74E-05
29.5008	4.73E-05
29.7508	4.60E-05
30.0008	5.02E-05
30.2508	4.94E-05
30.5008	5.13E-05
30.7508	5.04E-05
31.0008	4.98E-05
31.2508	5.36E-05
31.5008	5.02E-05
31.7508	5.19E-05
32.0008	5.22E-05
32.2508	5.22E-05
32.5008	5.23E-05
32.7508	5.34E-05
33.0008	5.50E-05
33.2508	5.53E-05
33.5008	5.65E-05
33.7508	5.64E-05
34.0008	5.78E-05
34.2508	5.95E-05
34.5008	6.01E-05
34.7508	6.25E-05
35.0008	6.29E-05
35.2508	6.20E-05
35.5008	5.98E-05
35.7508	5.79E-05
36.0008	6.13E-05
36.2508	5.97E-05
36.5007	6.05E-05
36.7508	6.04E-05
37.0008	6.09E-05
37.2508	6.41E-05
37.5007	6.35E-05
37.7508	6.44E-05
38.0007	6.71E-05
38.2507	6.56E-05
38.5007	6.77E-05
38.7507	7.10E-05
39.0007	7.27E-05
39.2507	7.28E-05
39.5007	7.31E-05
39.7507	7.26E-05
40.0007	7.28E-05
40.2507	7.10E-05
40.5007	7.67E-05
40.7507	7.71E-05
41.0007	7.80E-05
41.2507	7.86E-05
41.5007	8.05E-05
41.7507	8.19E-05
42.0007	8.42E-05
42.2507	8.15E-05
42.5007	8.29E-05
42.7505	8.18E-05
43.0007	8.10E-05
43.2507	8.12E-05
43.5007	8.18E-05
43.7507	8.50E-05
44.0007	8.60E-05
44.2507	8.65E-05
44.5007	8.67E-05
44.7507	8.79E-05
45.0007	8.70E-05
45.2507	8.60E-05
45.5007	8.27E-05
45.7507	7.98E-05
46.0007	8.48E-05
46.2507	8.26E-05
46.5007	8.18E-05
46.7507	8.01E-05
47.0006	8.26E-05
47.2507	8.18E-05
47.5007	8.09E-05
47.7507	7.92E-05
48.0007	8.04E-05
48.2507	8.04E-05
48.5007	7.78E-05
48.7507	7.97E-05
49.0007	8.04E-05
49.2507	7.81E-05
49.5007	7.58E-05
49.7507	7.45E-05
50.0006	7.44E-05
50.2506	7.52E-05
50.5006	7.50E-05
50.7506	7.22E-05
51.0006	7.13E-05
51.2506	7.11E-05
51.5006	6.84E-05
51.7506	6.77E-05
52.0006	6.89E-05
52.2506	6.60E-05
52.5006	6.53E-05
52.7506	6.47E-05
53.0002	6.18E-05
53.2502	6.10E-05
53.5006	5.98E-05
53.7506	5.95E-05
54.0006	6.12E-05
54.2506	5.97E-05
54.5006	5.87E-05
54.7506	5.66E-05
55.0006	5.86E-05
55.2506	5.51E-05
55.5006	5.24E-05
55.7506	5.07E-05
56.0006	4.73E-05
56.2506	5.04E-05
56.5006	4.63E-05
56.7506	4.64E-05
57.0006	4.80E-05
57.2506	4.63E-05
57.5006	4.79E-05
57.7506	4.32E-05
58.0006	4.52E-05
58.2506	4.26E-05
58.5006	4.08E-05
58.7506	4.15E-05
59.0006	3.95E-05
59.2506	3.90E-05
59.5006	3.42E-05
59.7506	3.33E-05
60.0006	3.58E-05
60.2506	3.70E-05
60.5006	3.49E-05
60.7506	3.81E-05
61.0006	3.39E-05
61.2506	3.27E-05
61.5006	3.03E-05
61.7506	3.11E-05
62.0006	2.96E-05
62.2506	2.89E-05
62.5006	2.97E-05
62.7506	2.89E-05
63.0005	2.96E-05
63.2505	2.49E-05
63.5001	2.63E-05
63.7503	2.68E-05
64.0002	2.57E-05
64.2505	2.55E-05
64.5005	2.12E-05
64.7505	2.06E-05
65.0005	2.27E-05
65.2505	1.98E-05
65.5005	2.17E-05
65.7505	1.86E-05
66.0005	1.57E-05
66.2505	1.81E-05
66.5005	1.97E-05
66.7505	1.97E-05
67.0005	1.58E-05
67.2505	1.81E-05
67.5005	1.65E-05
67.7505	1.61E-05
68.0005	1.59E-05
68.2505	1.56E-05
68.5005	1.43E-05
68.7505	1.37E-05
69.0005	1.61E-05
69.2505	1.71E-05
69.5005	1.67E-05
69.7505	1.29E-05
70.0005	1.35E-05
70.2505	1.26E-05
70.5005	1.16E-05
70.7505	1.27E-05
71.0005	1.34E-05
71.2505	1.23E-05
71.5005	1.34E-05
71.7505	1.25E-05
72.0005	1.20E-05
72.2505	1.25E-05
72.5005	1.30E-05
72.7505	1.37E-05
73.0005	9.89E-06
73.2505	9.95E-06
73.5005	1.13E-05
73.7505	1.31E-05
74.0005	1.10E-05
74.2505	1.17E-05
74.5005	1.03E-05
74.7505	1.08E-05
75.0005	1.11E-05
75.2505	1.16E-05
75.5005	1.17E-05
75.7505	1.00E-05
76.0005	8.88E-06
76.2505	8.58E-06
76.5005	9.30E-06
76.7504	1.03E-05
77.0004	9.54E-06
77.2504	1.10E-05
77.5004	8.64E-06
77.7504	6.68E-06
78.0004	8.17E-06
78.2504	9.66E-06
78.5004	1.14E-05
78.7504	1.17E-05
79.0004	1.36E-05
79.2504	9.83E-06
79.4996	9.36E-06
79.7502	1.26E-05
79.9999	9.78E-06
80.2493	1.13E-05
80.499	1.08E-05
80.7504	9.18E-06
81.0004	1.35E-05
81.2504	1.21E-05
81.5004	1.03E-05
81.7504	1.48E-05
82.0004	1.50E-05
82.2504	1.16E-05
82.5004	1.53E-05
82.7504	1.40E-05
83.0004	1.59E-05
83.2504	1.92E-05
83.5004	2.05E-05
83.7504	1.75E-05
84.0004	1.88E-05
84.2504	1.90E-05
84.5004	2.15E-05
84.7504	1.87E-05
85.0004	1.97E-05
85.2504	1.69E-05
85.5004	1.88E-05
85.7504	2.04E-05
86.0004	1.69E-05
86.2504	1.81E-05
86.5004	1.37E-05
86.7504	1.59E-05
87.0004	1.29E-05
87.2504	1.93E-05
87.5004	1.60E-05
87.7504	1.44E-05
88.0004	1.45E-05
88.2504	1.65E-05
88.5004	1.73E-05
88.7504	1.32E-05
89.0004	1.28E-05
89.2503	1.35E-05
89.5003	1.32E-05
89.7503	1.53E-05
90.0003	1.42E-05
90.2503	1.53E-05
90.5003	1.39E-05
90.7503	1.36E-05
91.0003	1.10E-05
91.2503	1.35E-05
91.5003	1.45E-05
91.7503	9.42E-06
92.0003	1.20E-05
92.2503	1.28E-05
92.5003	9.83E-06
92.7503	1.13E-05
93.0003	9.95E-06
93.2503	1.13E-05
93.5003	1.02E-05
93.7503	7.21E-06
94.0003	7.93E-06
94.2503	7.15E-06
94.5003	5.01E-06
94.7503	7.75E-06
95.0003	8.94E-06
95.2503	8.64E-06
95.5003	8.46E-06
95.7503	1.22E-05
96.0003	7.51E-06
96.2503	1.20E-05
96.5003	8.70E-06
96.7503	8.11E-06
97.0003	1.13E-05
97.2503	9.89E-06
97.5003	8.34E-06
97.7503	8.94E-06
98.0003	1.11E-05
98.2503	7.81E-06
98.5003	5.72E-06
98.7503	9.95E-06
99.0003	1.04E-05
99.2503	7.81E-06
99.5003	7.81E-06
99.7503	8.76E-06
100	5.25E-06
100.25	5.07E-06
100.5	7.75E-06
100.75	7.21E-06
101	5.07E-06
101.25	7.15E-06
101.5	6.20E-06
101.75	6.02E-06
102	4.95E-06
102.25	5.01E-06
102.5	9.06E-06
102.75	8.94E-06
103	4.05E-06
103.25	6.38E-06
103.5	9.60E-06
103.75	5.72E-06
104	5.96E-06
104.25	6.62E-06
104.5	7.63E-06
104.75	5.36E-06
105	6.26E-06
105.25	8.34E-06
105.5	5.13E-06
105.75	5.01E-06
106	5.13E-06
106.25	9.06E-06
106.5	8.34E-06
106.75	5.19E-06
107	8.70E-06
107.25	7.93E-06
107.5	8.29E-06
107.75	3.70E-06
108	4.17E-06
108.25	7.99E-06
108.5	6.38E-06
108.75	9.06E-06
109	5.42E-06
109.25	3.28E-06
109.5	4.05E-06
109.75	6.38E-06
110	1.04E-05
110.25	6.74E-06
110.5	5.90E-06
110.75	9.54E-06
111	1.19E-05
111.25	7.99E-06
111.5	8.58E-06
111.75	9.89E-06
112	7.45E-06
112.25	7.09E-06
112.5	9.89E-06
112.75	1.10E-05
113	7.45E-06
113.25	8.17E-06
113.5	1.19E-05
113.75	9.54E-06
114	1.06E-05
114.25	1.03E-05
114.5	7.21E-06
114.75	1.19E-05
115	1.01E-05
115.25	9.30E-06
115.5	9.18E-06
115.75	9.48E-06
116	9.66E-06
116.25	4.17E-06
116.5	1.06E-05
116.75	1.14E-05
117	1.31E-05
117.25	1.29E-05
117.5	1.42E-05
117.75	1.24E-05
118	1.33E-05
118.25	1.42E-05
118.5	1.50E-05
118.75	1.44E-05
119	1.30E-05
119.25	1.14E-05
119.5	1.75E-05
119.75	1.59E-05
120	1.70E-05
120.25	1.25E-05
120.5	1.69E-05
120.75	1.50E-05
121	1.48E-05
121.25	1.56E-05
121.5	1.76E-05
121.75	1.53E-05
122	1.62E-05
122.25	1.44E-05
122.5	1.75E-05
122.75	1.86E-05
123	1.70E-05
123.25	1.81E-05
123.5	1.60E-05
123.75	1.83E-05
124	2.09E-05
124.25	1.71E-05
124.498	1.79E-05
124.75	1.87E-05
125	1.65E-05
125.25	2.03E-05
125.5	1.67E-05
125.75	2.08E-05
126	2.19E-05
126.25	1.86E-05
126.5	1.86E-05
126.75	1.97E-05
127	2.21E-05
127.25	2.44E-05
127.5	2.21E-05
127.75	1.79E-05
128	1.71E-05
128.25	1.48E-05
128.5	1.92E-05
128.75	1.44E-05
129	1.34E-05
129.249	1.53E-05
129.5	1.57E-05
129.75	1.86E-05
130	1.45E-05
130.25	1.76E-05
130.5	1.69E-05
130.75	1.89E-05
131	1.70E-05
131.25	1.53E-05
131.5	1.73E-05
131.75	1.79E-05
132	1.38E-05
132.25	1.69E-05
132.5	1.70E-05
132.75	1.50E-05
132.999	1.93E-05
133.249	1.92E-05
133.499	1.73E-05
133.75	1.87E-05
134	1.82E-05
134	1.87E-05
-48.9987	6.65E-05
-48.7487	6.41E-05
-48.4987	6.26E-05
-48.2487	5.84E-05
-47.9987	5.69E-05
-47.7487	5.59E-05
-47.4987	5.58E-05
-47.2487	5.48E-05
-46.9987	5.31E-05
-46.7487	5.17E-05
-46.4987	5.05E-05
-46.2487	5.03E-05
-45.9987	4.95E-05
-45.7487	4.84E-05
-45.4987	5.13E-05
-45.2487	4.89E-05
-44.9987	4.80E-05
-44.7487	4.71E-05
-44.4987	4.66E-05
-44.2487	4.51E-05
-43.9987	4.74E-05
-43.7487	4.76E-05
-43.4987	4.51E-05
-43.2487	4.14E-05
-42.9987	4.51E-05
-42.7487	4.25E-05
-42.4987	3.91E-05
-42.2487	4.26E-05
-41.9987	4.13E-05
-41.7487	4.21E-05
-41.4987	3.95E-05
-41.2487	3.95E-05
-40.9987	3.98E-05
-40.7487	4.01E-05
-40.4987	3.72E-05
-40.2487	3.66E-05
-39.9988	3.76E-05
-39.7487	3.75E-05
-39.4988	3.78E-05
-39.2488	3.86E-05
-38.9988	3.80E-05
-38.7488	3.89E-05
-38.4988	3.78E-05
-38.2488	3.71E-05
-37.9988	3.76E-05
-37.7488	3.65E-05
-37.4988	3.67E-05
-37.2502	3.50E-05
-36.9988	3.66E-05
-36.7488	3.64E-05
-36.4988	3.82E-05
-36.2488	3.62E-05
-35.9988	3.98E-05
-35.7488	3.93E-05
-35.4988	3.81E-05
-35.2488	3.89E-05
-34.9988	3.98E-05
-34.7488	4.29E-05
-34.4988	4.02E-05
-34.2488	3.73E-05
-33.9988	4.09E-05
-33.7488	3.50E-05
-33.4988	3.76E-05
-33.2488	4.07E-05
-32.9988	3.75E-05
-32.7488	3.99E-05
-32.4988	3.68E-05
-32.2488	3.86E-05
-31.9988	3.71E-05
-31.7488	3.86E-05
-31.5004	3.89E-05
-31.2488	3.72E-05
-30.9988	3.90E-05
-30.7488	3.76E-05
-30.4988	3.56E-05
-30.2488	3.62E-05
-29.9988	3.99E-05
-29.7488	3.84E-05
-29.4988	3.80E-05
-29.2488	3.84E-05
-28.9988	3.95E-05
-28.7488	3.70E-05
-28.4988	3.52E-05
-28.2488	3.74E-05
-27.9988	3.84E-05
-27.7489	3.76E-05
-27.4989	3.76E-05
-27.2489	3.90E-05
-26.9992	3.81E-05
-26.7489	3.96E-05
-26.4989	3.95E-05
-26.2489	3.89E-05
-25.9989	3.77E-05
-25.7489	3.81E-05
-25.4989	4.03E-05
-25.2489	3.66E-05
-24.9989	3.59E-05
-24.7489	3.68E-05
-24.4989	3.82E-05
-24.2489	3.78E-05
-23.9989	3.76E-05
-23.7489	3.85E-05
-23.4989	4.01E-05
-23.2489	4.00E-05
-22.9989	3.79E-05
-22.7489	4.08E-05
-22.4989	3.62E-05
-22.2489	4.04E-05
-21.9989	3.62E-05
-21.7489	3.67E-05
-21.4989	4.01E-05
-21.2489	3.85E-05
-20.9989	3.85E-05
-20.7489	3.86E-05
-20.4989	3.78E-05
-20.2489	3.89E-05
-19.9989	3.81E-05
-19.7489	3.86E-05
-19.4989	3.81E-05
-19.2489	3.99E-05
-18.9989	3.89E-05
-18.7489	3.60E-05
-18.4989	3.95E-05
-18.2489	4.06E-05
-17.9989	3.85E-05
-17.7489	3.70E-05
-17.4989	4.00E-05
-17.2489	3.81E-05
-16.9998	4.05E-05
-16.7489	3.98E-05
-16.4989	3.81E-05
-16.2489	3.90E-05
-15.9989	4.03E-05
-15.7489	4.04E-05
-15.4989	3.98E-05
-15.2489	4.52E-05
-14.9989	3.98E-05
-14.7489	3.99E-05
-14.499	3.93E-05
-14.2489	4.09E-05
-13.999	3.73E-05
-13.749	4.04E-05
-13.499	3.73E-05
-13.249	3.93E-05
-12.999	4.09E-05
-12.749	3.87E-05
-12.499	4.15E-05
-12.249	3.92E-05
-11.999	3.81E-05
-11.749	4.08E-05
-11.499	3.64E-05
-11.249	3.95E-05
-10.999	4.01E-05
-10.749	3.88E-05
-10.499	4.26E-05
-10.249	4.20E-05
-9.99899	4.21E-05
-9.74899	4.17E-05
-9.49899	3.82E-05
-9.24899	3.68E-05
-8.99899	4.07E-05
-8.74901	4.14E-05
-8.49899	4.31E-05
-8.24901	4.30E-05
-7.999	3.90E-05
-7.74901	3.89E-05
-7.499	3.89E-05
-7.24901	4.02E-05
-6.99902	4.14E-05
-6.74902	3.98E-05
-6.49902	4.11E-05
-6.24902	4.12E-05
-5.99902	4.13E-05
-5.74902	4.15E-05
-5.49902	3.98E-05
-5.24902	3.81E-05
-4.99902	3.95E-05
-4.74903	3.93E-05
-4.49903	3.77E-05
-4.24904	3.92E-05
-3.99903	3.78E-05
-3.74904	3.78E-05
-3.49904	4.17E-05
-3.24904	4.06E-05
-2.99904	3.80E-05
-2.74905	4.11E-05
-2.49905	4.18E-05
-2.24905	4.35E-05
-1.99905	4.02E-05
-1.74905	4.12E-05
-1.49905	4.21E-05
-1.24905	3.83E-05
-0.999062	3.85E-05
-0.749062	4.23E-05
-0.499062	3.98E-05
-0.249069	3.84E-05
0.000938416	3.69E-05
0.250931	3.81E-05
0.500931	4.00E-05
0.750923	3.90E-05
1.00093	3.96E-05
1.25092	3.92E-05
1.50092	3.82E-05
1.75092	4.01E-05
2.00092	3.76E-05
2.25092	4.17E-05
2.50092	4.04E-05
2.75092	3.86E-05
3.00091	4.21E-05
3.25092	4.06E-05
3.50091	3.80E-05
3.7509	4.07E-05
4.00091	4.01E-05
4.2509	3.95E-05
4.5009	4.02E-05
4.75089	3.48E-05
5.0009	3.87E-05
5.25089	3.67E-05
5.50089	4.30E-05
5.75089	4.27E-05
6.00089	3.69E-05
6.25089	4.01E-05
6.50088	3.86E-05
6.75089	3.71E-05
7.00088	3.71E-05
7.25089	3.62E-05
7.50088	3.98E-05
7.75087	3.86E-05
8.00087	3.81E-05
8.25087	4.10E-05
8.50087	3.75E-05
8.75086	3.98E-05
9.00087	3.92E-05
9.25086	3.54E-05
9.49966	3.98E-05
9.74922	3.72E-05
10.0009	3.67E-05
10.2509	3.93E-05
10.5008	3.71E-05
10.7509	3.73E-05
11.0008	3.83E-05
11.2508	3.80E-05
11.5008	3.73E-05
11.7508	3.70E-05
12.0008	3.60E-05
12.2508	3.70E-05
12.5008	3.37E-05
12.7508	3.69E-05
13.0008	3.49E-05
13.2508	3.70E-05
13.5008	3.81E-05
13.7508	3.74E-05
14.0008	3.58E-05
14.2508	3.42E-05
14.5008	3.60E-05
14.7508	3.47E-05
15.0008	3.48E-05
15.2508	3.49E-05
15.5008	3.62E-05
15.7508	3.42E-05
15.9986	3.50E-05
16.2508	3.66E-05
16.5008	3.76E-05
16.7508	3.64E-05
17.0008	3.76E-05
17.2508	3.86E-05
17.5008	3.85E-05
17.7508	3.58E-05
18.0008	3.83E-05
18.2508	3.80E-05
18.5008	3.48E-05
18.7508	3.68E-05
19.0008	3.68E-05
19.2508	3.53E-05
19.5008	3.45E-05
19.7508	3.56E-05
20.0008	3.45E-05
20.2508	3.33E-05
20.5008	3.61E-05
20.7508	3.46E-05
21.0008	3.24E-05
21.2508	3.45E-05
21.5008	3.42E-05
21.7508	3.51E-05
22.0008	3.53E-05
22.2508	3.65E-05
22.5008	3.28E-05
22.7508	3.19E-05
23.0008	3.38E-05
23.2506	3.50E-05
23.5006	3.17E-05
23.7508	3.19E-05
24.0007	3.47E-05
24.2507	3.59E-05
24.5007	3.31E-05
24.7507	3.37E-05
25.0007	3.36E-05
25.2507	3.11E-05
25.5007	3.11E-05
25.7507	3.47E-05
26.0007	3.19E-05
26.2507	3.19E-05
26.5007	3.62E-05
26.7507	3.50E-05
27.0007	3.50E-05
27.2507	3.44E-05
27.5007	3.27E-05
27.7507	3.53E-05
28.0007	3.21E-05
28.2507	3.21E-05
28.5007	3.52E-05
28.7507	3.39E-05
29.0007	3.47E-05
29.2507	3.39E-05
29.5007	3.24E-05
29.7507	3.53E-05
30.0007	3.53E-05
30.2507	3.74E-05
30.5007	3.42E-05
30.7507	3.39E-05
31.0007	3.41E-05
31.2507	3.36E-05
31.5007	3.10E-05
31.7507	2.97E-05
32.0007	3.51E-05
32.2507	3.18E-05
32.5007	3.11E-05
32.7507	3.43E-05
33.0007	3.42E-05
33.2507	3.17E-05
33.5007	3.42E-05
33.7507	3.43E-05
34.0007	3.27E-05
34.2507	3.37E-05
34.4994	3.34E-05
34.7507	3.27E-05
35.0007	2.96E-05
35.2507	3.05E-05
35.5007	3.32E-05
35.7507	3.45E-05
36.0006	3.34E-05
36.2506	3.62E-05
36.5006	3.28E-05
36.7506	3.31E-05
37.0006	3.56E-05
37.2506	3.24E-05
37.5005	3.34E-05
37.7503	3.43E-05
38.0005	3.25E-05
38.2506	3.11E-05
38.5006	3.55E-05
38.7506	3.61E-05
39.0006	3.73E-05
39.2506	3.40E-05
39.5006	3.58E-05
39.7506	3.47E-05
40.0006	3.72E-05
40.2506	3.53E-05
40.5006	3.63E-05
40.7506	3.71E-05
41.0006	3.54E-05
41.2506	3.70E-05
41.5006	3.67E-05
41.7506	3.67E-05
42.0006	3.84E-05
42.2505	3.98E-05
42.5006	3.93E-05
42.7506	3.74E-05
43.0006	4.24E-05
43.2506	4.38E-05
43.5006	4.20E-05
43.7506	4.64E-05
44.0006	4.52E-05
44.2506	4.80E-05
44.5006	4.71E-05
44.7506	4.59E-05
45.0006	4.39E-05
45.2506	4.79E-05
45.5006	4.85E-05
45.7506	4.61E-05
46.0006	5.02E-05
46.2506	5.16E-05
46.5006	5.38E-05
46.7506	5.26E-05
47.0006	5.39E-05
47.2506	5.52E-05
47.5006	5.66E-05
47.7506	6.15E-05
48.0006	6.47E-05
48.2506	6.35E-05
48.5006	6.84E-05
48.7506	6.27E-05
49.0005	6.85E-05
49.2505	6.95E-05
49.5005	6.92E-05
49.7505	7.13E-05
50.0005	7.53E-05
50.2505	7.70E-05
50.5005	7.99E-05
50.7505	8.35E-05
51.0005	8.40E-05
51.2505	8.60E-05
51.5005	8.97E-05
51.7505	9.36E-05
52.0005	9.47E-05
52.2505	9.69E-05
52.5005	0.000101209
52.7505	0.000100673
53.0005	0.000107587
53.2505	0.000108183
53.5005	0.000109911
53.7505	0.000113786
54.0005	0.00011617
54.2505	0.000120998
54.4999	0.000121177
54.7493	0.000127495
55.0005	0.000131012
55.2505	0.000132025
55.5005	0.000134052
55.7505	0.000138224
56.0005	0.000137449
56.2505	0.000145138
56.5005	0.000152648
56.7505	0.000155569
57.0005	0.000158967
57.2505	0.000164748
57.5005	0.000168026
57.7505	0.000165583
58.0005	0.000174941
58.2505	0.000180782
58.5005	0.00018412
58.7505	0.000183822
59.0005	0.000188173
59.2504	0.000186742
59.5005	0.000192107
59.7505	0.000190319
60.0005	0.000197054
60.2505	0.000198008
60.5005	0.000192762
60.7505	0.000194193
61.0005	0.000196935
61.2504	0.000196517
61.5004	0.000204743
61.7504	0.000205935
62.0005	0.000211776
62.2505	0.000206114
62.5004	0.000209392
62.7504	0.000206352
63.0004	0.000204326
63.2504	0.000207544
63.5004	0.00021428
63.7504	0.00021577
64.0004	0.000218035
64.2504	0.000214041
64.5004	0.000208021
64.7504	0.000212551
65.0004	0.000215233
65.2504	0.000223697
65.5004	0.000222207
65.7504	0.000218929
66.0004	0.000213147
66.2504	0.000201584
66.5004	0.00020218
66.7504	0.000197412
67.0004	0.000201703
67.2504	0.00020367
67.5004	0.000203014
67.7504	0.000199617
68.0004	0.000199438
68.2504	0.000199438
68.5004	0.00020218
68.7504	0.000211955
69.0004	0.000208856
69.2498	0.000199438
69.4994	0.000192464
69.7487	0.000183166
70.0004	0.000185491
70.2504	0.00017953
70.5004	0.000177206
70.7504	0.000176908
71.0004	0.000183285
71.2504	0.000175775
71.5004	0.000172676
71.7504	0.000167967
72.0004	0.000166417
72.2504	0.000164033
72.5004	0.00015849
72.7504	0.00015694
73.0004	0.000157
73.2504	0.000154377
73.5004	0.000146152
73.7504	0.000142277
74.0004	0.000133873
74.2504	0.000133277
74.5004	0.000129641
74.7504	0.000121952
75.0004	0.000123442
75.2503	0.000122906
75.5003	0.000120879
75.7503	0.000115157
76.0003	0.000116885
76.2503	0.000112355
76.5003	0.000105143
76.7503	0.000101269
77.0003	0.000105501
77.2503	0.000105262
77.5003	0.000101269
77.7503	9.21E-05
78.0003	9.10E-05
78.2503	8.64E-05
78.5003	9.00E-05
78.7503	8.83E-05
79.0003	8.88E-05
79.2503	8.96E-05
79.5003	8.88E-05
79.7503	8.54E-05
80.0003	8.46E-05
80.2503	7.59E-05
80.5003	7.36E-05
80.7503	7.59E-05
81.0003	7.32E-05
81.2503	6.93E-05
81.5003	6.46E-05
81.7503	6.23E-05
82.0003	6.03E-05
82.2503	5.57E-05
82.5003	5.35E-05
82.7503	5.58E-05
83.0003	5.55E-05
83.2503	5.26E-05
83.5003	5.27E-05
83.7503	4.71E-05
83.9995	4.60E-05
84.2503	4.07E-05
84.5003	3.02E-05
84.7503	3.13E-05
85.0003	1.45E-05
85.2503	6.56E-06
85.5003	5.66E-06
85.7503	4.17E-06
86.0003	4.41E-06
86.2503	9.30E-06
86.5003	6.02E-06
86.7503	5.60E-06
87.0003	5.48E-06
87.2503	6.74E-06
87.5003	5.01E-06
87.7503	4.53E-06
88.0002	5.72E-06
88.2502	6.38E-06
88.5002	6.91E-06
88.7502	2.56E-06
89.0002	8.58E-06
89.2502	6.85E-06
89.5002	7.75E-06
89.7502	9.89E-06
90.0002	6.79E-06
90.2502	7.15E-06
90.5002	7.75E-06
90.7502	4.83E-06
91.0002	7.03E-06
91.2502	6.38E-06
91.5002	6.02E-06
91.7502	9.42E-06
91.9989	7.33E-06
92.2502	1.00E-05
92.5002	7.51E-06
92.7502	6.20E-06
93.0002	8.23E-06
93.2502	1.03E-05
93.5002	7.15E-06
93.7502	6.38E-06
94.0002	8.05E-06
94.2502	8.94E-06
94.5002	7.63E-06
94.7502	8.58E-06
95.0002	8.40E-06
95.2502	1.11E-05
95.5002	6.62E-06
95.7502	8.40E-06
96.0002	8.40E-06
96.2502	8.58E-06
96.5002	7.39E-06
96.7502	1.29E-05
97.0002	7.63E-06
97.2502	8.52E-06
97.5002	8.52E-06
97.7502	7.51E-06
98.0002	6.20E-06
98.2502	9.06E-06
98.5002	8.52E-06
98.7502	6.50E-06
99.0002	6.62E-06
99.2502	9.60E-06
99.5002	8.94E-06
99.7502	1.03E-05
100	1.06E-05
100.25	1.16E-05
100.5	8.70E-06
100.75	9.54E-06
101	7.81E-06
101.25	9.48E-06
101.5	8.29E-06
101.749	9.48E-06
101.999	1.01E-05
102.249	1.10E-05
102.5	8.58E-06
102.75	1.08E-05
103	1.10E-05
103.25	1.38E-05
103.5	1.35E-05
103.75	1.24E-05
104	1.06E-05
104.25	8.88E-06
104.5	1.07E-05
104.75	1.04E-05
105	1.09E-05
105.25	1.13E-05
105.5	1.13E-05
105.75	1.26E-05
106	1.03E-05
106.25	1.03E-05
106.5	1.11E-05
106.75	1.21E-05
107	1.14E-05
107.25	9.06E-06
107.5	9.36E-06
107.75	1.16E-05
108	1.35E-05
108.25	1.41E-05
108.5	1.29E-05
108.75	1.20E-05
109	1.41E-05
109.25	8.17E-06
109.5	1.04E-05
109.75	7.93E-06
110	6.50E-06
110.25	1.22E-05
110.5	1.08E-05
110.75	1.17E-05
111	7.81E-06
111.25	6.79E-06
111.5	1.13E-05
111.75	1.17E-05
112	9.95E-06
112.25	1.11E-05
112.5	1.20E-05
112.75	1.42E-05
112.999	1.65E-05
113.25	1.66E-05
113.5	1.69E-05
113.75	1.62E-05
114	1.47E-05
114.25	1.42E-05
114.5	1.23E-05
114.75	9.48E-06
115	9.18E-06
115.25	1.42E-05
115.5	1.54E-05
115.75	1.25E-05
116	1.48E-05
116.25	1.63E-05
116.5	1.47E-05
116.75	1.78E-05
117	1.54E-05
117.25	1.46E-05
117.5	1.67E-05
117.749	1.56E-05
118	1.65E-05
118.25	1.61E-05
118.5	1.76E-05
118.75	1.70E-05
119	1.81E-05
119.25	2.07E-05
119.5	1.81E-05
119.75	1.70E-05
120	5.96E-08
120	0
-63.9994	5.08E-05
-63.75	4.97E-05
-63.4987	4.89E-05
-63.2499	4.53E-05
-62.9987	4.29E-05
-62.7487	4.34E-05
-62.4987	4.79E-05
-62.2487	4.39E-05
-61.9987	4.28E-05
-61.7487	3.84E-05
-61.4987	3.98E-05
-61.2487	4.07E-05
-60.9987	3.95E-05
-60.7487	3.82E-05
-60.4987	3.62E-05
-60.2487	3.53E-05
-59.9987	3.42E-05
-59.7487	3.33E-05
-59.4987	3.17E-05
-59.2487	3.34E-05
-58.9987	3.12E-05
-58.7487	3.19E-05
-58.4987	2.86E-05
-58.2487	2.99E-05
-57.9987	2.93E-05
-57.7487	2.85E-05
-57.4987	2.88E-05
-57.2487	2.69E-05
-56.9987	2.61E-05
-56.7487	2.69E-05
-56.4987	2.91E-05
-56.2487	2.77E-05
-55.9987	2.66E-05
-55.7487	2.61E-05
-55.4987	2.71E-05
-55.2487	2.41E-05
-54.9988	2.37E-05
-54.7488	2.63E-05
-54.4988	2.49E-05
-54.2488	2.61E-05
-53.9988	2.52E-05
-53.7488	2.33E-05
-53.4988	2.47E-05
-53.2488	2.51E-05
-52.9988	2.55E-05
-52.7488	2.38E-05
-52.4988	2.49E-05
-52.2488	2.20E-05
-51.9988	2.28E-05
-51.7494	2.04E-05
-51.4993	2.26E-05
-51.2489	2.52E-05
-50.9988	2.46E-05
-50.7488	2.45E-05
-50.4988	2.13E-05
-50.2488	2.37E-05
-49.9988	2.86E-05
-49.7488	2.30E-05
-49.4988	2.49E-05
-49.2488	2.66E-05
-48.9988	2.48E-05
-48.7488	2.63E-05
-48.4988	2.37E-05
-48.2488	2.23E-05
-47.9988	2.58E-05
-47.7488	2.14E-05
-47.4988	2.60E-05
-47.2488	2.62E-05
-46.9988	2.68E-05
-46.7488	2.53E-05
-46.4988	2.55E-05
-46.2488	2.46E-05
-45.9988	2.28E-05
-45.7488	2.40E-05
-45.4988	2.49E-05
-45.2488	2.34E-05
-44.9988	2.57E-05
-44.7488	2.21E-05
-44.4988	2.58E-05
-44.2488	2.66E-05
-43.9988	2.37E-05
-43.7488	2.43E-05
-43.4988	2.54E-05
-43.2488	2.65E-05
-42.9988	2.41E-05
-42.7497	2.38E-05
-42.4989	2.50E-05
-42.2489	2.34E-05
-41.9989	2.77E-05
-41.7489	2.41E-05
-41.4989	2.41E-05
-41.2489	2.47E-05
-40.9989	2.32E-05
-40.7489	2.30E-05
-40.4989	2.35E-05
-40.2489	2.66E-05
-39.9989	2.42E-05
-39.7489	2.27E-05
-39.4989	2.56E-05
-39.2489	2.72E-05
-38.9989	2.38E-05
-38.7489	2.39E-05
-38.4989	2.50E-05
-38.2489	2.63E-05
-37.9989	2.38E-05
-37.7489	2.53E-05
-37.4989	2.32E-05
-37.2489	2.28E-05
-36.9989	2.56E-05
-36.7489	2.52E-05
-36.4989	2.40E-05
-36.2489	2.49E-05
-35.9989	2.72E-05
-35.7489	2.68E-05
-35.4989	2.25E-05
-35.2489	2.24E-05
-34.9989	2.56E-05
-34.7489	2.41E-05
-34.4989	2.43E-05
-34.2489	2.40E-05
-33.9989	2.38E-05
-33.7489	2.40E-05
-33.4989	2.83E-05
-33.2489	2.34E-05
-33.0003	2.55E-05
-32.7504	2.59E-05
-32.4989	2.42E-05
-32.2489	2.52E-05
-31.9989	2.32E-05
-31.7489	2.48E-05
-31.4989	2.59E-05
-31.2489	2.47E-05
-30.9989	2.41E-05
-30.7489	2.71E-05
-30.4989	2.77E-05
-30.2489	2.71E-05
-29.9989	2.63E-05
-29.7489	2.58E-05
-29.4995	2.90E-05
-29.2489	2.37E-05
-28.9995	2.43E-05
-28.7492	2.37E-05
-28.4996	2.84E-05
-28.249	2.82E-05
-27.999	2.97E-05
-27.749	2.66E-05
-27.499	3.17E-05
-27.249	3.02E-05
-26.999	2.74E-05
-26.749	3.00E-05
-26.499	2.65E-05
-26.249	2.68E-05
-25.999	2.83E-05
-25.749	2.59E-05
-25.499	2.66E-05
-25.249	2.72E-05
-24.999	3.08E-05
-24.749	2.68E-05
-24.499	3.08E-05
-24.249	2.76E-05
-24.0003	2.89E-05
-23.7503	2.84E-05
-23.499	2.62E-05
-23.249	2.84E-05
-22.999	2.88E-05
-22.749	2.80E-05
-22.499	2.84E-05
-22.249	2.65E-05
-21.999	2.90E-05
-21.749	2.77E-05
-21.499	2.72E-05
-21.249	2.57E-05
-20.999	2.71E-05
-20.749	2.69E-05
-20.499	2.96E-05
-20.249	2.61E-05
-19.999	2.47E-05
-19.749	2.34E-05
-19.499	2.64E-05
-19.249	2.70E-05
-18.999	2.75E-05
-18.7491	2.62E-05
-18.499	2.87E-05
-18.2492	2.86E-05
-17.9992	2.43E-05
-17.7491	3.00E-05
-17.4991	2.50E-05
-17.249	2.87E-05
-16.9991	2.72E-05
-16.749	2.57E-05
-16.4991	2.62E-05
-16.2491	2.63E-05
-15.9991	2.67E-05
-15.7491	2.51E-05
-15.4991	2.71E-05
-15.2491	2.43E-05
-14.9991	2.78E-05
-14.7491	2.82E-05
-14.4991	2.54E-05
-14.2491	2.46E-05
-13.9991	2.55E-05
-13.7491	2.83E-05
-13.4991	2.80E-05
-13.2491	2.79E-05
-12.9991	3.08E-05
-12.7491	2.83E-05
-12.4991	2.76E-05
-12.2491	2.74E-05
-11.9991	2.93E-05
-11.7491	2.92E-05
-11.4991	2.68E-05
-11.2491	2.92E-05
-10.9991	2.79E-05
-10.7491	2.74E-05
-10.4993	2.91E-05
-10.2491	2.57E-05
-9.9991	2.97E-05
-9.74911	3.03E-05
-9.49911	2.78E-05
-9.24911	2.73E-05
-8.99911	2.71E-05
-8.74911	2.93E-05
-8.49912	2.94E-05
-8.24911	2.60E-05
-7.99912	2.84E-05
-7.74911	2.75E-05
-7.49912	2.75E-05
-7.24913	2.50E-05
-6.99913	2.96E-05
-6.74913	2.85E-05
-6.49913	2.63E-05
-6.24914	2.80E-05
-5.99913	3.20E-05
-5.74914	2.80E-05
-5.49914	3.03E-05
-5.24914	2.97E-05
-4.99915	2.71E-05
-4.74915	2.55E-05
-4.49915	2.96E-05
-4.24915	2.99E-05
-3.99915	2.74E-05
-3.74915	2.74E-05
-3.49915	2.80E-05
-3.24916	2.83E-05
-3.001	3.11E-05
-2.75092	2.94E-05
-2.49916	2.68E-05
-2.24917	2.80E-05
-1.99916	2.77E-05
-1.74917	2.90E-05
-1.49917	2.72E-05
-1.24918	2.92E-05
-0.999176	3.09E-05
-0.749176	2.71E-05
-0.499184	2.98E-05
-0.249176	2.84E-05
0.000816345	2.57E-05
0.250816	2.65E-05
0.500809	2.68E-05
0.750816	2.24E-05
1.00081	2.79E-05
1.2508	2.63E-05
1.50081	2.91E-05
1.7508	2.62E-05
2.0008	2.57E-05
2.2508	2.77E-05
2.5008	3.03E-05
2.75079	2.73E-05
3.00079	2.97E-05
3.25079	2.81E-05
3.50079	2.58E-05
3.75079	2.81E-05
4.00079	2.99E-05
4.25079	3.10E-05
4.50078	2.97E-05
4.75079	2.69E-05
5.00078	2.83E-05
5.25077	2.80E-05
5.50078	2.69E-05
5.75077	2.86E-05
6.00022	3.05E-05
6.25049	2.80E-05
6.50077	2.39E-05
6.75076	2.81E-05
7.00077	2.76E-05
7.25076	2.78E-05
7.50076	2.43E-05
7.75076	2.87E-05
8.00076	2.90E-05
8.25076	2.58E-05
8.50075	2.62E-05
8.75076	3.09E-05
9.00075	3.04E-05
9.25074	2.74E-05
9.5006	2.62E-05
9.75074	2.83E-05
10.0005	2.62E-05
10.2504	2.80E-05
10.5005	2.68E-05
10.7507	2.80E-05
11.0006	2.76E-05
11.2501	2.82E-05
11.5005	2.80E-05
11.75	2.47E-05
12.0002	2.35E-05
12.2504	2.49E-05
12.5	2.60E-05
12.7501	2.46E-05
13.0007	2.59E-05
13.2489	2.66E-05
13.5007	2.57E-05
13.7507	2.31E-05
14.0007	2.15E-05
14.2507	2.86E-05
14.5007	2.45E-05
14.7507	2.65E-05
15.0007	2.48E-05
15.2507	2.66E-05
15.5007	2.58E-05
15.7507	2.62E-05
16.0007	2.59E-05
16.2507	2.56E-05
16.5007	2.60E-05
16.7507	2.69E-05
17.0007	2.59E-05
17.2507	2.60E-05
17.5007	2.71E-05
17.7507	2.66E-05
18.0007	2.52E-05
18.2501	2.53E-05
18.5007	2.46E-05
18.7507	2.59E-05
19.0007	2.25E-05
19.2507	2.43E-05
19.5007	2.34E-05
19.7507	2.61E-05
20.0007	2.32E-05
20.2507	2.52E-05
20.5007	2.32E-05
20.7507	2.41E-05
21.0006	2.42E-05
21.2506	2.28E-05
21.5006	2.28E-05
21.7506	2.43E-05
22.0006	2.47E-05
22.2506	2.02E-05
22.5006	2.35E-05
22.7506	2.47E-05
23.0006	2.30E-05
23.2506	2.44E-05
23.5006	2.28E-05
23.7506	2.47E-05
24.0006	2.04E-05
24.2506	2.72E-05
24.5006	2.29E-05
24.7506	2.24E-05
25.0006	2.17E-05
25.2506	2.31E-05
25.5006	2.57E-05
25.7506	2.43E-05
26.0006	2.24E-05
26.2506	2.59E-05
26.5006	2.22E-05
26.7506	1.91E-05
27.0006	2.40E-05
27.2506	2.52E-05
27.5006	2.34E-05
27.7506	2.57E-05
28.0006	2.38E-05
28.2506	2.30E-05
28.5006	2.41E-05
28.7506	2.66E-05
29.0006	2.37E-05
29.2494	2.26E-05
29.5006	2.49E-05
29.7506	2.35E-05
30.0006	2.22E-05
30.2506	2.49E-05
30.5006	2.30E-05
30.7506	2.32E-05
31.0006	2.24E-05
31.2506	2.32E-05
31.5006	2.37E-05
31.7506	2.46E-05
32.0006	2.41E-05
32.2506	2.50E-05
32.5006	2.36E-05
32.7506	2.11E-05
33.0006	2.36E-05
33.2506	2.16E-05
33.5006	1.99E-05
33.7506	2.10E-05
34.0005	2.33E-05
34.2505	2.35E-05
34.5005	2.40E-05
34.7505	2.28E-05
35.0005	2.04E-05
35.2505	2.44E-05
35.5005	2.49E-05
35.7505	2.72E-05
36.0005	2.27E-05
36.2505	2.44E-05
36.5005	2.50E-05
36.7505	2.43E-05
37.0005	2.49E-05
37.2505	2.53E-05
37.5005	2.66E-05
37.7505	2.63E-05
38.0005	2.52E-05
38.2505	2.55E-05
38.5005	2.53E-05
38.7505	2.75E-05
39.0005	2.59E-05
39.2505	2.78E-05
39.5005	2.84E-05
39.7505	2.62E-05
40.0005	2.54E-05
40.2505	2.68E-05
40.5005	2.70E-05
40.7505	2.47E-05
41.0005	2.80E-05
41.2505	2.88E-05
41.5005	2.81E-05
41.7505	2.74E-05
42.0005	2.94E-05
42.2504	2.98E-05
42.5004	3.05E-05
42.7505	3.28E-05
43.0005	3.16E-05
43.2505	3.14E-05
43.5005	3.18E-05
43.7505	3.14E-05
44.0005	3.00E-05
44.2505	3.31E-05
44.5005	3.51E-05
44.7505	3.13E-05
45.0005	3.59E-05
45.2483	3.38E-05
45.5005	3.35E-05
45.7505	3.57E-05
46.0005	3.57E-05
46.2505	3.69E-05
46.5005	3.75E-05
46.7505	3.73E-05
47.0005	3.61E-05
47.2505	3.84E-05
47.5005	3.95E-05
47.7504	4.17E-05
48.0004	3.89E-05
48.2504	4.09E-05
48.5004	3.72E-05
48.7504	4.27E-05
49.0004	4.17E-05
49.2498	4.39E-05
49.499	4.31E-05
49.7496	4.55E-05
49.9993	4.33E-05
50.2504	5.05E-05
50.5004	5.28E-05
50.7504	4.94E-05
51.0004	5.03E-05
51.2504	5.28E-05
51.5004	5.62E-05
51.7504	5.56E-05
52.0004	5.86E-05
52.2504	6.15E-05
52.5004	6.43E-05
52.7504	6.32E-05
53.0004	6.53E-05
53.2504	6.44E-05
53.5004	6.54E-05
53.7504	6.85E-05
54.0004	7.36E-05
54.2504	7.53E-05
54.5004	7.63E-05
54.7504	7.87E-05
55.0004	8.31E-05
55.2504	8.54E-05
55.5004	8.70E-05
55.7504	9.13E-05
56.0004	9.17E-05
56.2504	9.51E-05
56.5004	9.80E-05
56.7504	0.000105203
57.0004	0.000102222
57.2504	0.000107408
57.5004	0.000111402
57.7504	0.000119389
58.0004	0.000122429
58.2504	0.000123621
58.5004	0.000129879
58.7504	0.000137747
59.0004	0.000139774
59.2504	0.00014484
59.5004	0.000150979
59.7504	0.000156821
60.0004	0.000166477
60.2503	0.000173808
60.5003	0.00017959
60.7503	0.00018555
61.0003	0.000194074
61.2503	0.00019771
61.5003	0.000208081
61.7503	0.000216366
62.0003	0.000222982
62.2503	0.000230552
62.5003	0.000240029
62.7503	0.000248732
63.0003	0.000268104
63.2503	0.000279428
63.5003	0.000286879
63.7503	0.000300767
64.0003	0.000312449
64.2503	0.000330212
64.5003	0.000343801
64.7503	0.000357809
65.0003	0.000363769
65.2503	0.000372769
65.5003	0.000390651
65.7503	0.000395479
66.0003	0.000414075
66.2503	0.000428917
66.5003	0.000440659
66.7503	0.000451507
67.0003	0.000463964
67.2503	0.00048429
67.5003	0.000510041
67.7503	0.000537399
68.0003	0.000556413
68.2503	0.000567917
68.5003	0.00058705
68.7503	0.000601295
68.9999	0.000611607
69.25	0.000620786
69.5	0.000626508
69.7503	0.000630084
69.9995	0.000644628
70.2494	0.000663046
70.4994	0.000689391
70.7493	0.000696842
71.0003	0.0007273
71.2491	0.000739936
71.5003	0.000781063
71.7503	0.000779931
72.0003	0.000809077
72.2503	0.000815038
72.5003	0.000823561
72.7503	0.000824872
73.0002	0.000831787
73.2502	0.00084633
73.5002	0.000874344
73.7502	0.000874702
74.0002	0.000905935
74.2502	0.000929836
74.5002	0.000961307
74.7502	0.000950579
75.0002	0.000947241
75.2502	0.000951294
75.5002	0.000966076
75.7502	0.000956539
76.0002	0.000945095
76.2502	0.00094891
76.5002	0.000984199
76.7502	0.00098706
77.0002	0.00097657
77.2502	0.000977524
77.5002	0.000975613
77.7502	0.000980385
78.0002	0.000958446
78.2502	0.000956539
78.5002	0.000963215
78.7501	0.000955585
79.0002	0.000951771
79.2502	0.000935558
79.5002	0.000936512
79.7502	0.000949863
80.0002	0.000949863
80.2502	0.000909809
80.5002	0.000868801
80.7502	0.000845913
81.0002	0.000856403
81.2502	0.000854496
81.4998	0.000838283
81.7502	0.000792507
82.0002	0.000758175
82.2502	0.000750545
82.5002	0.000703815
82.7502	0.000653271
83.0002	0.000602726
83.2502	0.000559811
83.5002	0.000457766
83.7502	0.00030327
84.0002	0.000159265
84.2502	7.72E-05
84.5002	3.91E-05
84.7502	2.77E-05
85.0002	2.10E-05
85.2502	1.62E-05
85.5002	1.62E-05
85.7502	1.24E-05
86.0001	1.24E-05
86.2501	1.24E-05
86.5001	1.53E-05
86.7501	1.24E-05
87.0001	1.34E-05
87.2501	1.34E-05
87.5001	1.05E-05
87.7501	1.24E-05
88.0001	9.54E-06
88.2501	1.34E-05
88.5001	9.54E-06
88.7501	1.14E-05
89.0001	1.43E-05
89.2501	1.43E-05
89.5001	8.58E-06
89.7501	1.14E-05
90.0001	1.24E-05
90.2501	9.54E-06
90.5001	1.53E-05
90.7501	1.43E-05
91.0001	1.24E-05
91.2501	1.24E-05
91.5001	1.53E-05
91.7501	2.00E-05
91.9998	1.81E-05
92.2496	1.81E-05
92.4995	1.72E-05
92.7496	1.81E-05
92.9989	1.91E-05
93.2495	2.19E-05
93.499	2.38E-05
93.7493	2.19E-05
94.0001	2.19E-05
94.2501	2.48E-05
94.5001	2.96E-05
94.7501	2.86E-05
95.0001	3.05E-05
95.2501	3.34E-05
95.5001	3.43E-05
95.7501	2.38E-05
96.0001	1.72E-05
96.2501	1.05E-05
96.4999	6.68E-06
96.75	1.05E-05
97	1.05E-05
97.2498	5.72E-06
97.4994	1.14E-05
97.7501	1.24E-05
98.0001	9.54E-06
98.2501	1.24E-05
98.5001	1.34E-05
98.75	1.91E-05
99	2.10E-05
99.25	1.72E-05
99.5	2.29E-05
99.75	2.86E-05
100	3.91E-05
100.25	3.24E-05
100.5	1.81E-05
100.75	8.58E-06
101	1.24E-05
101.25	6.68E-06
101.5	1.72E-05
101.75	1.81E-05
102	2.10E-05
102.25	1.72E-05
102.5	1.91E-05
102.75	1.72E-05
103	1.91E-05
103.25	1.62E-05
103.5	1.81E-05
103.75	2.10E-05
104	1.81E-05
104.25	1.53E-05
104.5	1.91E-05
104.75	2.10E-05
105	1.72E-05
105	1.81E-05
